Data from lightSpectrum_USB4E013582_11-08-12-683.txt Node
Date: Fri May 03 11:08:12 EDT 2019
User: dh1006
Spectrometer: USB4E01358
Autoset integration time: false
Trigger mode: 4
Integration Time (sec): 3.159300E-1
Scans to average: 10
Electric dark correction enabled: true
Nonlinearity correction enabled: false
Boxcar width: 0
Stray light correction enabled: false
XAxis mode: Wavelengths
Stop averaging: false
Number of Pixels in Spectrum: 3648
>>>>>Begin Spectral Data<<<<<
176.727	-345.32
176.966	-345.32
177.205	-345.32
177.444	-337.13
177.683	-342.25
177.922	428.4
178.161	72.67
178.4	228.52
178.638	135.34
178.877	259.24
179.116	29.25
179.355	347.71
179.593	214.19
179.832	217.67
180.071	321.09
180.309	224.43
180.548	126.33
180.786	176.71
181.025	226.06
181.263	384.17
181.502	458.71
181.74	237.33
181.979	286.89
182.217	412.84
182.456	668.63
182.694	250.03
182.932	281.15
183.17	171.38
183.409	397.48
183.647	211.52
183.885	185.72
184.123	398.09
184.361	416.53
184.6	212.14
184.838	211.32
185.076	404.03
185.314	514.21
185.552	178.76
185.79	284.84
186.028	182.03
186.266	355.09
186.503	109.53
186.741	316.38
186.979	469.77
187.217	317.81
187.455	403.62
187.693	175.68
187.93	323.96
188.168	429.43
188.406	396.46
188.643	117.32
188.881	312.28
189.119	349.76
189.356	277.26
189.594	184.9
189.831	320.68
190.069	481.65
190.306	81.07
190.543	344.44
190.781	241.22
191.018	325.8
191.256	363.89
191.493	170.15
191.73	161.14
191.967	388.88
192.205	266.2
192.442	283.2
192.679	395.64
192.916	261.29
193.153	271.12
193.39	367.37
193.628	535.31
193.865	394
194.102	305.94
194.339	325.19
194.576	317.61
194.813	526.71
195.049	351.4
195.286	103.19
195.523	237.53
195.76	408.54
195.997	336.04
196.234	269.69
196.47	421.65
196.707	178.76
196.944	236.92
197.18	199.24
197.417	120.59
197.654	416.73
197.89	324.37
198.127	433.52
198.363	425.33
198.6	379.87
198.836	461.38
199.073	331.74
199.309	299.38
199.546	345.67
199.782	296.72
200.018	349.76
200.255	319.86
200.491	483.9
200.727	210.91
200.963	249.82
201.199	479.19
201.436	258.22
201.672	199.24
201.908	356.72
202.144	285.46
202.38	207.02
202.616	313.1
202.852	320.07
203.088	251.66
203.324	573.4
203.56	247.36
203.796	387.85
204.032	249.41
204.268	491.07
204.503	267.02
204.739	335.63
204.975	126.74
205.211	327.64
205.446	302.66
205.682	348.33
205.918	554.56
206.153	372.29
206.389	232
206.625	190.43
206.86	269.69
207.096	343.62
207.331	148.24
207.567	226.88
207.802	349.15
208.037	369.22
208.273	303.27
208.508	228.52
208.744	238.35
208.979	74.92
209.214	218.9
209.449	329.69
209.685	267.02
209.92	368.6
210.155	465.27
210.39	271.12
210.625	248.39
210.86	314.74
211.095	385.81
211.33	263.75
211.565	248.18
211.8	246.54
212.035	328.67
212.27	272.35
212.505	341.77
212.74	223.4
212.975	220.94
213.21	383.96
213.444	127.76
213.679	632.79
213.914	152.95
214.149	213.37
214.383	269.07
214.618	256.99
214.853	235.28
215.087	491.69
215.322	308.8
215.556	223.4
215.791	66.32
216.025	290.58
216.26	379.25
216.494	352.01
216.729	220.13
216.963	329.49
217.197	331.74
217.432	356.11
217.666	169.75
217.9	454.62
218.135	254.74
218.369	590.4
218.603	310.65
218.837	178.76
219.071	218.49
219.306	206.81
219.54	295.49
219.774	361.23
220.008	271.94
220.242	137.39
220.476	68.37
220.71	312.08
220.944	128.58
221.178	266.2
221.411	482.06
221.645	120.39
221.879	288.73
222.113	285.25
222.347	209.48
222.58	337.47
222.814	202.31
223.048	467.52
223.281	203.74
223.515	205.38
223.749	266.82
223.982	375.77
224.216	156.02
224.449	323.34
224.683	230.98
224.916	518.72
225.15	370.65
225.383	141.07
225.617	363.28
225.85	242.45
226.083	290.98
226.317	220.53
226.55	274.4
226.783	276.85
227.016	166.67
227.25	243.06
227.483	208.66
227.716	519.54
227.949	229.96
228.182	184.49
228.415	381.91
228.648	477.96
228.881	254.33
229.114	265.59
229.347	500.9
229.58	215.41
229.813	281.97
230.046	416.73
230.279	362.46
230.512	225.04
230.745	545.96
230.977	270.1
231.21	340.96
231.443	367.37
231.675	180.19
231.908	158.07
232.141	480.42
232.373	579.34
232.606	337.27
232.839	228.52
233.071	292.42
233.304	282.18
233.536	286.27
233.769	424.31
234.001	335.43
234.233	293.65
234.466	242.24
234.698	324.57
234.93	400.76
235.163	359.59
235.395	222.58
235.627	141.07
235.86	247.77
236.092	215.82
236.324	330.31
236.556	467.52
236.788	311.26
237.02	395.02
237.252	76.97
237.484	478.58
237.716	173.43
237.948	396.66
238.18	256.17
238.412	423.49
238.644	305.32
238.876	279.52
239.108	259.45
239.34	243.68
239.571	331.53
239.803	222.17
240.035	191.45
240.267	535.31
240.498	227.29
240.73	366.35
240.962	185.92
241.193	309.21
241.425	274.6
241.656	525.89
241.888	313.31
242.119	415.91
242.351	468.75
242.582	631.15
242.814	125.1
243.045	105.85
243.277	265.18
243.508	182.65
243.739	195.75
243.971	313.72
244.202	631.56
244.433	353.45
244.664	264.16
244.896	258.01
245.127	413.45
245.358	588.55
245.589	214.39
245.82	186.33
246.051	279.11
246.282	281.36
246.513	236.71
246.744	298.77
246.975	302.25
247.206	447.24
247.437	204.97
247.668	219.31
247.899	267.84
248.129	326.21
248.36	95.81
248.591	300.2
248.822	191.66
249.052	422.46
249.283	382.73
249.514	426.56
249.744	186.74
249.975	460.15
250.206	269.48
250.436	345.26
250.667	256.17
250.897	303.48
251.128	290.78
251.358	481.65
251.589	427.79
251.819	448.47
252.049	506.43
252.28	181.62
252.51	324.37
252.74	436.6
252.971	215.62
253.201	237.94
253.431	304.71
253.661	412.84
253.891	143.94
254.121	231.18
254.352	371.88
254.582	307.16
254.812	161.35
255.042	150.49
255.272	457.48
255.502	138
255.732	251.25
255.962	409.97
256.192	185.72
256.421	298.77
256.651	332.97
256.881	317.4
257.111	363.89
257.341	398.71
257.57	283.41
257.8	102.37
258.03	277.06
258.259	342.8
258.489	247.98
258.719	279.93
258.948	253.51
259.178	476.33
259.407	328.46
259.637	307.78
259.866	276.65
260.096	238.15
260.325	252.07
260.555	498.24
260.784	400.76
261.013	258.83
261.243	184.49
261.472	315.15
261.701	338.7
261.931	319.04
262.16	269.28
262.389	283
262.618	320.07
262.847	418.57
263.076	222.99
263.305	454.41
263.535	188.79
263.764	290.78
263.993	207.22
264.222	228.52
264.451	398.5
264.679	432.09
264.908	173.02
265.137	279.11
265.366	370.04
265.595	223.61
265.824	263.13
266.053	272.76
266.281	320.68
266.51	333.58
266.739	418.57
266.967	220.53
267.196	454.21
267.425	248.8
267.653	237.33
267.882	104.01
268.11	136.57
268.339	223.2
268.567	255.76
268.796	238.15
269.024	399.12
269.253	433.52
269.481	164.42
269.709	287.91
269.938	247.36
270.166	260.88
270.394	424.1
270.623	439.05
270.851	378.23
271.079	401.37
271.307	326.82
271.535	145.37
271.764	231.59
271.992	508.68
272.22	301.02
272.448	314.74
272.676	295.49
272.904	251.46
273.132	201.69
273.36	102.78
273.588	361.43
273.816	381.51
274.043	240.81
274.271	171.18
274.499	318.22
274.727	365.33
274.955	240.81
275.182	218.49
275.41	358.16
275.638	501.93
275.866	326.82
276.093	463.83
276.321	258.63
276.548	197.6
276.776	141.69
277.003	301.02
277.231	318.02
277.458	254.12
277.686	254.53
277.913	230.36
278.141	266.41
278.368	166.26
278.595	224.22
278.823	146.4
279.05	856.63
279.277	279.52
279.505	146.4
279.732	145.99
279.959	383.76
280.186	392.36
280.413	308.39
280.641	260.27
280.868	451.55
281.095	41.54
281.322	243.27
281.549	202.92
281.776	411.2
282.003	123.67
282.23	283.61
282.457	304.09
282.683	251.87
282.91	204.97
283.137	197.6
283.364	276.85
283.591	235.89
283.818	257.81
284.044	197.6
284.271	284.84
284.498	269.28
284.724	255.96
284.951	142.92
285.178	184.7
285.404	245.32
285.631	218.49
285.857	328.67
286.084	305.12
286.31	380.48
286.537	313.92
286.763	271.32
286.99	338.5
287.216	260.88
287.442	260.06
287.669	253.92
287.895	372.9
288.121	393.79
288.347	351.2
288.574	320.07
288.8	477.55
289.026	335.84
289.252	273.58
289.478	289.76
289.704	172.82
289.931	331.94
290.157	103.6
290.383	259.65
290.609	266.61
290.835	254.53
291.06	283.2
291.286	296.92
291.512	344.23
291.738	602.89
291.964	368.4
292.19	184.29
292.416	246.34
292.641	191.86
292.867	329.69
293.093	323.75
293.319	333.79
293.544	239.17
293.77	211.11
293.995	450.93
294.221	211.11
294.447	295.08
294.672	314.13
294.898	134.32
295.123	246.95
295.349	419.19
295.574	375.57
295.799	121.62
296.025	233.44
296.25	283.61
296.476	182.65
296.701	412.84
296.926	221.15
297.151	276.03
297.377	403.62
297.602	235.28
297.827	156.64
298.052	242.04
298.277	210.91
298.502	134.72
298.727	315.36
298.953	312.49
299.178	369.83
299.403	143.33
299.628	244.91
299.852	446.63
300.077	282.79
300.302	220.94
300.527	208.25
300.752	423.08
300.977	517.08
301.202	170.15
301.426	344.85
301.651	288.73
301.876	160.32
302.101	180.39
302.325	362.25
302.55	338.7
302.775	304.91
302.999	107.28
303.224	299.59
303.448	350.58
303.673	252.07
303.897	342.39
304.122	355.09
304.346	245.52
304.571	169.34
304.795	214.39
305.019	387.85
305.244	162.99
305.468	356.52
305.692	240.81
305.917	343.62
306.141	154.18
306.365	301.43
306.589	381.1
306.813	400.35
307.038	312.9
307.262	250.44
307.486	267.43
307.71	241.63
307.934	356.72
308.158	278.7
308.382	178.96
308.606	433.52
308.83	255.96
309.054	275.42
309.278	235.48
309.502	156.23
309.725	295.08
309.949	384.37
310.173	351.2
310.397	52.81
310.62	181.62
310.844	395.02
311.068	319.25
311.292	121.21
311.515	368.6
311.739	378.23
311.962	242.86
312.186	194.73
312.41	149.06
312.633	340.14
312.857	90.49
313.08	313.31
313.303	213.78
313.527	315.97
313.75	310.85
313.974	329.08
314.197	196.57
314.42	327.64
314.644	285.25
314.867	476.94
315.09	250.03
315.313	378.43
315.536	232.62
315.76	281.77
315.983	382.73
316.206	450.73
316.429	390.11
316.652	103.19
316.875	212.14
317.098	287.5
317.321	236.71
317.544	304.91
317.767	429.02
317.99	270.51
318.213	317.4
318.436	256.78
318.658	243.88
318.881	296.51
319.104	348.94
319.327	205.58
319.55	313.1
319.772	432.7
319.995	295.7
320.218	497.22
320.44	352.63
320.663	432.7
320.885	366.15
321.108	336.65
321.331	370.04
321.553	536.74
321.776	118.96
321.998	253.3
322.22	521.38
322.443	401.37
322.665	424.72
322.888	280.75
323.11	493.32
323.332	149.27
323.555	224.63
323.777	503.36
323.999	179.58
324.221	309.62
324.443	254.74
324.666	363.89
324.888	389.9
325.11	461.38
325.332	303.68
325.554	160.94
325.776	237.53
325.998	528.75
326.22	267.43
326.442	461.38
326.664	125.92
326.886	446.63
327.108	177.32
327.33	296.92
327.551	352.63
327.773	267.43
327.995	281.15
328.217	173.02
328.439	388.47
328.66	328.87
328.882	272.96
329.104	380.89
329.325	236.51
329.547	262.93
329.769	158.07
329.99	391.74
330.212	244.5
330.433	335.63
330.655	331.53
330.876	225.04
331.098	259.04
331.319	282.79
331.54	162.99
331.762	326.62
331.983	307.78
332.204	354.47
332.426	330.31
332.647	331.33
332.868	260.88
333.089	315.97
333.311	416.93
333.532	343
333.753	184.49
333.974	262.11
334.195	262.31
334.416	401.17
334.637	341.57
334.858	297.74
335.079	172.41
335.3	332.97
335.521	275.01
335.742	411.41
335.963	267.84
336.184	355.09
336.405	422.05
336.626	425.33
336.846	353.45
337.067	404.85
337.288	198.83
337.509	333.38
337.729	245.93
337.95	113.63
338.171	266.61
338.391	400.35
338.612	506.64
338.833	255.15
339.053	378.23
339.274	318.02
339.494	314.95
339.715	311.67
339.935	144.35
340.156	473.25
340.376	432.7
340.596	361.84
340.817	374.34
341.037	415.91
341.257	290.37
341.478	209.89
341.698	345.87
341.918	239.38
342.138	273.99
342.359	336.86
342.579	297.33
342.799	208.04
343.019	243.27
343.239	161.96
343.459	213.16
343.679	527.93
343.899	374.13
344.119	227.7
344.339	243.68
344.559	394.41
344.779	105.64
344.999	230.16
345.219	240.4
345.439	536.95
345.658	280.54
345.878	233.03
346.098	397.68
346.318	371.47
346.537	227.5
346.757	439.87
346.977	513.6
347.196	292.62
347.416	240.4
347.636	351.2
347.855	519.95
348.075	409.15
348.294	595.52
348.514	333.58
348.733	617.84
348.953	313.1
349.172	137.8
349.392	354.88
349.611	269.28
349.83	212.14
350.05	461.99
350.269	309.83
350.488	301.22
350.707	392.36
350.927	252.69
351.146	341.16
351.365	201.08
351.584	392.15
351.803	150.29
352.023	255.76
352.242	389.49
352.461	350.79
352.68	268.25
352.899	257.6
353.118	562.14
353.337	472.84
353.556	137.18
353.775	97.66
353.993	184.7
354.212	344.44
354.431	473.46
354.65	345.46
354.869	242.86
355.088	357.13
355.306	123.67
355.525	159.91
355.744	199.03
355.962	354.88
356.181	366.96
356.4	122.23
356.618	173.84
356.837	413.04
357.055	96.84
357.274	315.77
357.492	300.61
357.711	324.37
357.929	225.25
358.148	300
358.366	418.37
358.585	422.87
358.803	528.96
359.021	424.31
359.24	467.93
359.458	369.22
359.676	346.89
359.894	172.2
360.113	208.86
360.331	170.77
360.549	239.38
360.767	333.79
360.985	285.66
361.203	284.84
361.421	266.61
361.639	284.02
361.857	460.56
362.075	484.93
362.293	517.29
362.511	268.46
362.729	429.63
362.947	465.47
363.165	288.53
363.383	169.54
363.601	404.24
363.819	266
364.036	256.78
364.254	135.34
364.472	300.82
364.689	355.7
364.907	338.29
365.125	301.84
365.342	283.82
365.56	349.56
365.778	379.05
365.995	216.23
366.213	289.14
366.43	270.1
366.648	259.65
366.865	411.61
367.083	390.72
367.3	382.94
367.517	531.83
367.735	274.81
367.952	450.11
368.17	540.63
368.387	393.59
368.604	370.04
368.821	217.46
369.039	272.14
369.256	126.12
369.473	326.62
369.69	596.75
369.907	375.16
370.124	355.91
370.341	74.72
370.558	245.11
370.776	503.77
370.993	344.44
371.21	168.31
371.426	188.79
371.643	159.71
371.86	438.44
372.077	320.48
372.294	366.55
372.511	287.91
372.728	229.55
372.945	56.08
373.161	378.23
373.378	299.59
373.595	361.64
373.811	400.76
374.028	281.36
374.245	255.35
374.461	197.19
374.678	414.68
374.895	227.5
375.111	429.84
375.328	221.76
375.544	290.37
375.761	220.13
375.977	311.46
376.194	290.17
376.41	306.34
376.626	356.52
376.843	374.54
377.059	499.67
377.275	201.69
377.492	433.52
377.708	307.16
377.924	289.55
378.14	264.77
378.357	516.26
378.573	372.9
378.789	261.49
379.005	381.51
379.221	442.33
379.437	441.72
379.653	297.33
379.869	333.58
380.085	313.31
380.301	440.08
380.517	335.84
380.733	211.32
380.949	427.79
381.165	341.98
381.381	276.03
381.597	305.32
381.813	447.86
382.028	571.56
382.244	293.03
382.46	386.83
382.676	642.01
382.891	442.33
383.107	184.7
383.323	388.88
383.538	228.73
383.754	677.03
383.969	302.66
384.185	437.62
384.4	376.79
384.616	500.9
384.831	376.59
385.047	456.05
385.262	323.96
385.478	373.93
385.693	348.74
385.909	336.24
386.124	471.62
386.339	278.29
386.554	325.39
386.77	475.1
386.985	266.2
387.2	375.57
387.415	474.28
387.631	344.23
387.846	454.82
388.061	272.55
388.276	504.18
388.491	406.29
388.706	470.18
388.921	471.82
389.136	598.38
389.351	429.02
389.566	554.15
389.781	615.18
389.996	480.22
390.211	423.9
390.426	542.68
390.641	745.84
390.855	391.74
391.07	706.72
391.285	686.45
391.5	739.9
391.714	456.26
391.929	472.43
392.144	551.9
392.358	570.53
392.573	587.74
392.788	559.27
393.002	534.49
393.217	620.09
393.431	589.17
393.646	542.68
393.86	587.74
394.075	650.61
394.289	570.94
394.504	509.91
394.718	863.6
394.933	882.85
395.147	869.54
395.361	610.88
395.576	785.57
395.79	795.4
396.004	722.9
396.218	837.59
396.432	744
396.647	793.56
396.861	686.45
397.075	692.39
397.289	818.34
397.503	684.6
397.717	601.87
397.931	759.97
398.145	770.21
398.359	767.55
398.573	794.79
398.787	821.2
399.001	842.71
399.215	929.13
399.429	996.31
399.643	817.31
399.857	1039.11
400.07	1196.8
400.284	1034.19
400.498	961.69
400.712	1071.88
400.925	1176.94
401.139	972.34
401.353	963.74
401.566	1348.56
401.78	1330.74
401.994	1041.36
402.207	1259.47
402.421	1289.98
402.634	1339.14
402.848	1403.65
403.061	1239.4
403.275	1267.87
403.488	1514.85
403.702	1345.48
403.915	1264.38
404.128	1245.54
404.342	1432.93
404.555	1394.23
404.768	1452.39
404.982	1392.38
405.195	1513.62
405.408	1425.56
405.621	1757.13
405.835	1693.64
406.048	1749.34
406.261	1698.35
406.474	1734.6
406.687	1618.89
406.9	1835.56
407.113	1625.85
407.326	1777.4
407.539	1744.02
407.752	2046.71
407.965	1971.14
408.178	1966.63
408.391	2045.07
408.604	2107.74
408.817	2006.98
409.029	1999.2
409.242	2046.71
409.455	2205.02
409.668	2379.3
409.881	2340.39
410.093	2202.97
410.306	2486
410.519	2434.39
410.731	2412.68
410.944	2305.78
411.157	2491.32
411.369	2641.03
411.582	2842.34
411.794	2873.06
412.007	2848.49
412.219	2712.3
412.432	2836.81
412.644	2904.81
412.857	2890.06
413.069	3074.38
413.281	3019.7
413.494	2932.25
413.706	3035.47
413.918	2885.56
414.131	3269.96
414.343	3147.7
414.555	3008.23
414.767	3011.1
414.979	3073.76
415.192	3374.41
415.404	3643.92
415.616	3371.54
415.828	3383.42
416.04	3699.01
416.252	3479.06
416.464	3406.76
416.676	3491.55
416.888	3643.3
417.1	3629.17
417.312	3601.53
417.524	3880.66
417.736	3842.57
417.948	4015.83
418.159	4122.73
418.371	3649.86
418.583	3828.44
418.795	3737.92
419.007	4118.84
419.218	3960.74
419.43	3852.61
419.642	4170.86
419.853	4103.28
420.065	4052.49
420.276	4172.5
420.488	4294.15
420.7	4143.62
420.911	4102.05
421.123	4310.33
421.334	4113.72
421.546	4094.47
421.757	4388.97
421.969	4278.38
422.18	4547.89
422.391	4520.45
422.603	4405.15
422.814	4597.25
423.025	4849.76
423.237	4618.34
423.448	4736.92
423.659	5151.22
423.87	4893.59
424.082	4843.41
424.293	4788.73
424.504	4845.26
424.715	4735.28
424.926	4908.95
425.137	4824.57
425.348	4938.24
425.559	5041.86
425.77	5092.04
425.981	4686.54
426.192	5076.47
426.403	5068.49
426.614	4859.59
426.825	4960.15
427.036	4974.28
427.247	4612.2
427.458	5263.04
427.668	5080.77
427.879	5152.45
428.09	5147.33
428.301	5177.03
428.511	5201.6
428.722	5161.26
428.933	5445.72
429.143	5045.75
429.354	5050.67
429.565	5480.33
429.775	5342.71
429.986	5179.28
430.196	5076.27
430.407	5051.69
430.617	5083.03
430.828	4957.08
431.038	5146.72
431.249	5285.57
431.459	5155.32
431.669	5006.43
431.88	5065.62
432.09	5036.74
432.3	5461.7
432.511	5439.99
432.721	5225.36
432.931	5417.46
433.141	4940.69
433.351	5142.01
433.562	5658.3
433.772	5495.69
433.982	5302.57
434.192	5103.1
434.402	5259.36
434.612	4953.8
434.822	5298.06
435.032	5081.59
435.242	5195.46
435.452	5336.57
435.662	5095.93
435.872	5286.6
436.082	5166.79
436.292	4806.76
436.502	5091.63
436.711	5331.04
436.921	5007.87
437.131	5182.97
437.341	4910.59
437.551	5290.08
437.76	5208.16
437.97	5125.42
438.18	4950.73
438.389	4890.93
438.599	4902.4
438.808	5107.19
439.018	5251.37
439.228	5155.53
439.437	4887.86
439.647	4832.77
439.856	5153.68
440.066	4855.5
440.275	5135.66
440.484	5166.79
440.694	5071.76
440.903	5220.45
441.113	4689.41
441.322	5051.9
441.531	4691.66
441.741	5067.26
441.95	4787.1
442.159	4878.03
442.368	5153.48
442.577	4767.43
442.787	4784.84
442.996	5050.26
443.205	5054.56
443.414	5177.85
443.623	4941.31
443.832	4732.21
444.041	4828.05
444.25	4638.62
444.459	4726.89
444.668	4745.11
444.877	4627.56
445.086	4485.22
445.295	4563.87
445.504	4764.36
445.713	4729.34
445.922	4754.74
446.13	4634.52
446.339	4610.97
446.548	4381.19
446.757	4501.61
446.965	4460.44
447.174	4702.92
447.383	4399.82
447.591	4447.34
447.8	4111.06
448.009	4672.41
448.217	4465.97
448.426	4646.81
448.634	4463.52
448.843	4787.71
449.051	4399.01
449.26	4474.99
449.468	4382.42
