Data from x0_Transmission_14-57-28-044.txt Node
Date: Thu May 02 14:57:28 EDT 2019
User: dh1006
Spectrometer: USB4E01358
Autoset integration time: false
Trigger mode: 4
Integration Time (sec): 8.000000E-2
Scans to average: 1
Electric dark correction enabled: true
Nonlinearity correction enabled: false
Boxcar width: 0
Stray light correction enabled: false
XAxis mode: Wavelengths
Stop averaging: false
Number of Pixels in Spectrum: 3648
>>>>>Begin Spectral Data<<<<<
176.727	363.33
176.966	363.33
177.205	363.33
177.444	150.56
177.683	70.52
177.922	33.47
178.161	450
178.4	99
178.638	-6700
178.877	63.77
179.116	265.26
179.355	154.55
179.593	-158.57
179.832	140.31
180.071	-47.95
180.309	233.33
180.548	168.49
180.786	-42.06
181.025	-9950
181.263	-16.21
181.502	84.03
181.74	57.64
181.979	-20.48
182.217	93.06
182.456	90.02
182.694	1.58
182.932	115.71
183.17	12.73
183.409	-155.78
183.647	55.74
183.885	-49.47
184.123	152.79
184.361	192.81
184.6	-35.03
184.838	-1644.44
185.076	-14.29
185.314	-112.2
185.552	33.22
185.79	-17.27
186.028	72.4
186.266	-9.24
186.503	5.26
186.741	-88.21
186.979	142.11
187.217	-6700
187.455	215.13
187.693	11.96
187.93	31
188.168	747.92
188.406	61.81
188.643	114.03
188.881	-784.06
189.119	-35.44
189.356	-19.44
189.594	140.36
189.831	261.98
190.069	-35.74
190.306	-26.14
190.543	69.63
190.781	115.94
191.018	117.07
191.256	396.72
191.493	-182.07
191.73	30.96
191.967	-176.79
192.205	-111.68
192.442	103.44
192.679	1100
192.916	-216.25
193.153	122.56
193.39	-826.79
193.628	556.36
193.865	-123.34
194.102	-34.92
194.339	23.23
194.576	-40.43
194.813	-11.16
195.049	222.5
195.286	70.99
195.523	-44.62
195.76	16.67
195.997	23.66
196.234	-26.9
196.47	-66.93
196.707	-277.61
196.944	4.42
197.18	38.28
197.417	23.44
197.654	31.77
197.89	67.65
198.127	-45.52
198.363	442.53
198.6	33.83
198.836	100.44
199.073	-7.78
199.309	82.51
199.546	48.87
199.782	-3.77
200.018	-1846.67
200.255	72.86
200.491	-1379.07
200.727	73.68
200.963	14.43
201.199	-189.64
201.436	296.63
201.672	-38.23
201.908	39.81
202.144	-51.09
202.38	-172.63
202.616	44.51
202.852	-41.25
203.088	5.9
203.324	306.32
203.56	-374.39
203.796	-118.48
204.032	-20.29
204.268	531.25
204.503	160.55
204.739	-124.86
204.975	-49.88
205.211	-124.89
205.446	33.2
205.682	57.79
205.918	-351.16
206.153	-26.97
206.389	132.22
206.625	100.32
206.86	80.68
207.096	100.62
207.331	74.8
207.567	2.69
207.802	-85.03
208.037	20.43
208.273	17.58
208.508	-248.15
208.744	-82.16
208.979	19.9
209.214	-8000
209.449	100.36
209.685	42.75
209.92	93.06
210.155	122.27
210.39	16.06
210.625	-83.93
210.86	-153.39
211.095	182.35
211.33	-32.53
211.565	-272.22
211.8	-65.52
212.035	358.68
212.27	9.08
212.505	85.82
212.74	77.16
212.975	390.91
213.21	157.27
213.444	88.45
213.679	-71.75
213.914	53.05
214.149	0.89
214.383	-2.83
214.618	57.83
214.853	83.69
215.087	-18.28
215.322	-53.8
215.556	-56.28
215.791	162.79
216.025	-146.28
216.26	-30.09
216.494	397.3
216.729	137.04
216.963	-60.85
217.197	67.85
217.432	9.78
217.666	-89.02
217.9	0.45
218.135	54.26
218.369	7600
218.603	220.36
218.837	8.55
219.071	216.41
219.306	74.78
219.54	70.83
219.774	56.75
220.008	72.46
220.242	-307.44
220.476	1711.76
220.71	32.4
220.944	49.19
221.178	-215.85
221.411	6.21
221.645	21.78
221.879	96.22
222.113	-156.67
222.347	23.38
222.58	-59.31
222.814	48.8
223.048	-79.63
223.281	-2.1
223.515	432.74
223.749	-167.5
223.982	-123.1
224.216	970
224.449	236.18
224.683	-113.76
224.916	-175.93
225.15	40.65
225.383	593
225.617	2.87
225.85	18.12
226.083	218.26
226.317	168.73
226.55	-56.28
226.783	52.78
227.016	42.37
227.25	394.29
227.483	101.79
227.716	16.24
227.949	15.7
228.182	170.25
228.415	-84.81
228.648	-102.5
228.881	100.21
229.114	-35.21
229.347	60.83
229.58	710
229.813	101.94
230.046	-121.21
230.279	-31.73
230.512	-1.25
230.745	37.71
230.977	79.86
231.21	59.29
231.443	-106.93
231.675	89.5
231.908	1558.82
232.141	118.79
232.373	-487.37
232.606	-129.25
232.839	113.25
233.071	-176.89
233.304	-165.53
233.536	-364.21
233.769	207.37
234.001	-32.06
234.233	100.93
234.466	21.06
234.698	246.08
234.93	10.69
235.163	95.11
235.395	-623.26
235.627	36.36
235.86	-294.2
236.092	60.66
236.324	8.72
236.556	36.26
236.788	3.61
237.02	41.69
237.252	18.11
237.484	36.86
237.716	233.33
237.948	117.49
238.18	552.07
238.412	100.5
238.644	196.09
238.876	-70
239.108	30.38
239.34	290.16
239.571	39.47
239.803	-10.24
240.035	152.54
240.267	142.46
240.498	-1500
240.73	993.44
240.962	-49.75
241.193	62.82
241.425	14.98
241.656	323.74
241.888	26.09
242.119	-19.62
242.351	132.56
242.582	75.94
242.814	4.13
243.045	75.35
243.277	-170.9
243.508	660.81
243.739	70.52
243.971	7.01
244.202	24.65
244.433	-27.17
244.664	85.41
244.896	87.97
245.127	43.95
245.358	-896.43
245.589	138.15
245.82	302.02
246.051	-77.58
246.282	35.57
246.513	194.38
246.744	1.6
246.975	370.73
247.206	-6.93
247.437	-71.83
247.668	-320.37
247.899	9.07
248.129	68.12
248.36	67.21
248.591	-83.41
248.822	3.77
249.052	-102.99
249.283	39.06
249.514	23.35
249.744	-55.26
249.975	-18.99
250.206	-12.34
250.436	76.6
250.667	707.19
250.897	46.6
251.128	17.13
251.358	133.78
251.589	204.44
251.819	56.9
252.049	-21.66
252.28	83.64
252.51	-47.8
252.74	96.04
252.971	-6050
253.201	43.27
253.431	9.74
253.661	-46.7
253.891	-167.5
254.121	10.81
254.352	164
254.582	97.14
254.812	136.65
255.042	-102.01
255.272	42.26
255.502	199.18
255.732	2255.56
255.962	140.98
256.192	35.18
256.421	-92.74
256.651	65.25
256.881	83.11
257.111	84.95
257.341	-22.86
257.57	101.75
257.8	60.4
258.03	74.31
258.259	11.54
258.489	15.93
258.719	46.77
258.948	75.7
259.178	4.16
259.407	168.14
259.637	13.57
259.866	27.5
260.096	-108.54
260.325	-4.62
260.555	122.27
260.784	92.75
261.013	-1012.5
261.243	63.87
261.472	555.41
261.701	71.56
261.931	6.82
262.16	87.21
262.389	77.16
262.618	-219.7
262.847	108.03
263.076	42.37
263.305	52.49
263.535	-16.04
263.764	62.68
263.993	54.6
264.222	26.22
264.451	51.14
264.679	50.31
264.908	10.81
265.137	-11.01
265.366	52.55
265.595	-21.35
265.824	42.51
266.053	46.74
266.281	-124.86
266.51	11.17
266.739	65.83
266.967	48.72
267.196	-4750
267.425	63.96
267.653	45.61
267.882	65.74
268.11	305.56
268.339	-42.54
268.567	45.28
268.796	-150.84
269.024	867.86
269.253	-217.06
269.481	102.23
269.709	81.27
269.938	77.49
270.166	55.77
270.394	-34.04
270.623	17.98
270.851	-139.18
271.079	141.03
271.307	16.26
271.535	184.35
271.764	16.67
271.992	353.19
272.22	23.92
272.448	-82.16
272.676	-28.95
272.904	51.03
273.132	38.86
273.36	4.94
273.588	81.57
273.816	62.36
274.043	-25.87
274.271	107.65
274.499	-3.56
274.727	221.3
274.955	70.99
275.182	35.52
275.41	-193.01
275.638	203.61
275.866	368.75
276.093	47.08
276.321	51.42
276.548	-4.73
276.776	-75.38
277.003	143.76
277.231	1062.86
277.458	-95.21
277.686	320
277.913	-37.5
278.141	48.58
278.368	76.55
278.595	21.89
278.823	-342.68
279.05	-110.83
279.277	-41.64
279.505	-38.62
279.732	-236.25
279.959	60
280.186	106.63
280.413	15.56
280.641	32.95
280.868	87.15
281.095	-134.45
281.322	-26.67
281.549	-90.36
281.776	-6.18
282.003	8.75
282.23	-177.59
282.457	66.14
282.683	22.86
282.91	-159.38
283.137	87.25
283.364	-22.73
283.591	-3.36
283.818	-1500
284.044	-381.4
284.271	42.49
284.498	-41.25
284.724	98.27
284.951	4.02
285.178	54.87
285.404	43.06
285.631	44.16
285.857	7.64
286.084	-58.96
286.31	-136.18
286.537	1.15
286.763	26.22
286.99	-1.27
287.216	2400
287.442	-111.56
287.669	46.48
287.895	119.64
288.121	117.99
288.347	-3.36
288.574	59.29
288.8	36.86
289.026	120.08
289.252	151.82
289.478	32.84
289.704	38.28
289.931	41.03
290.157	39.66
290.383	1.91
290.609	51.77
290.835	62.11
291.06	93.65
291.286	-5.51
291.512	310.98
291.738	-56.22
291.964	44.84
292.19	-85.29
292.416	-95.16
292.641	183.29
292.867	45.95
293.093	877.14
293.319	80.6
293.544	110.23
293.77	30.65
293.995	-68.2
294.221	-32.86
294.447	68.72
294.672	176.89
294.898	45.54
295.123	14.47
295.349	67.41
295.574	69.51
295.799	31.18
296.025	54
296.25	45.13
296.476	229
296.701	9.78
296.926	-8.55
297.151	-22.73
297.377	-868.57
297.602	-6.65
297.827	42.45
298.052	287.5
298.277	82.06
298.502	61.01
298.727	55.91
298.953	37.98
299.178	68.38
299.403	165.83
299.628	-9.76
299.852	-25.21
300.077	-1500
300.302	15.84
300.527	-21.83
300.752	-23.73
300.977	346
301.202	290.16
301.426	76.38
301.651	-11.19
301.876	152.08
302.101	-65.34
302.325	34.81
302.55	15.88
302.775	-48.1
302.999	75.76
303.224	-17.19
303.448	12.46
303.673	-236.11
303.897	20.71
304.122	54.64
304.346	43.63
304.571	37.54
304.795	91.84
305.019	24.58
305.244	58.71
305.468	45.95
305.692	-89.7
305.917	47.11
306.141	0.89
306.365	247.54
306.589	-8.1
306.813	50.42
307.038	32.14
307.262	121.78
307.486	106.43
307.71	450
307.934	73.27
308.158	235.84
308.382	9.87
308.606	-60.62
308.83	33.21
309.054	-211.56
309.278	58.76
309.502	95.15
309.725	-327.75
309.949	110.64
310.173	88.89
310.397	60.9
310.62	343.28
310.844	15.88
311.068	206.25
311.292	49.55
311.515	-10.99
311.739	558.33
311.962	41.69
312.186	17.43
312.41	-6.65
312.633	-1.69
312.857	89.4
313.08	-308.33
313.303	-43.01
313.527	62.04
313.75	31.68
313.974	-49.91
314.197	-96.75
314.42	127.25
314.644	108.03
314.867	48.87
315.09	0.85
315.313	38.87
315.536	-24.28
315.76	-20.69
315.983	55.53
316.206	34
316.429	-118.75
316.652	-148
316.875	12.07
317.098	2.22
317.321	8.38
317.544	238.75
317.767	15.9
317.99	73.21
318.213	0.65
318.436	-68.35
318.658	27.71
318.881	-114.62
319.104	16.67
319.327	106.12
319.55	79.68
319.772	238.33
319.995	710
320.218	-0.88
320.44	47.62
320.663	-8.63
320.885	-35.03
321.108	28.59
321.331	-52.45
321.553	-97.15
321.776	9550
321.998	38.65
322.22	9.59
322.443	193.94
322.665	48.44
322.888	37.16
323.11	130.2
323.332	28.83
323.555	233.33
323.777	88.89
323.999	44.09
324.221	76.08
324.443	82.41
324.666	-37.27
324.888	95.31
325.11	-135.54
325.332	113.57
325.554	33.02
325.776	10.49
325.998	132.56
326.22	-256.52
326.442	20.34
326.664	8.84
326.886	-52.83
327.108	-2.76
327.33	-113.33
327.551	36.59
327.773	-6.86
327.995	-13.45
328.217	-17.08
328.439	48.63
328.66	101.91
328.882	-124.79
329.104	403.57
329.325	28.04
329.547	58.71
329.769	-88.45
329.99	91.22
330.212	162.3
330.433	-30.54
330.655	55.54
330.876	100.25
331.098	886.89
331.319	8.83
331.54	-4.73
331.762	-23.57
331.983	81.93
332.204	4.04
332.426	90.59
332.647	157.87
332.868	25.12
333.089	-74.48
333.311	65.91
333.532	-20.76
333.753	-546.67
333.974	14.12
334.195	-16.3
334.416	0.85
334.637	-39.25
334.858	34.82
335.079	-123.03
335.3	17.05
335.521	-121.61
335.742	214.49
335.963	110.11
336.184	85.22
336.405	52.85
336.626	52.32
336.846	-18.99
337.067	75.48
337.288	34.52
337.509	-1023.33
337.729	105.1
337.95	-1923.26
338.171	-115.08
338.391	29.41
338.612	51.09
338.833	747.92
339.053	25.23
339.274	33.96
339.494	23.92
339.715	88.89
339.935	-27.22
340.156	89.19
340.376	89.37
340.596	58.2
340.817	1211.43
341.037	112.66
341.257	97.46
341.478	-6.66
341.698	-16.3
341.918	-297.5
342.138	0.95
342.359	-60.22
342.579	22.19
342.799	-27.65
343.019	60
343.239	40.07
343.459	67.16
343.679	75.29
343.899	50.37
344.119	50.4
344.339	5.7
344.559	-37.9
344.779	-247.27
344.999	-11.66
345.219	39.08
345.439	35.43
345.658	-344.44
345.878	260.42
346.098	-89.54
346.318	-4.49
346.537	1277.27
346.757	-14.29
346.977	-24.55
347.196	42.8
347.416	10.29
347.636	26.29
347.855	193.28
348.075	-150.76
348.294	-110.63
348.514	76.85
348.733	22.18
348.953	511.58
349.172	106.22
349.392	21.78
349.611	111.19
349.83	61.41
350.05	-81.82
350.269	32.01
350.488	48.31
350.707	-35.63
350.927	42.29
351.146	26.74
351.365	-5.1
351.584	-67.05
351.803	30.41
352.023	20.24
352.242	64.64
352.461	-136.44
352.68	105.58
352.899	60
353.118	-6.38
353.337	125
353.556	-101.17
353.775	73.09
353.993	-81.22
354.212	49.23
354.431	60.25
354.65	51.94
354.869	44.01
355.088	47.16
355.306	53.39
355.525	44.67
355.744	25.94
355.962	-18.28
356.181	432.43
356.4	5.26
356.618	40.98
356.837	-77.92
357.055	-63.25
357.274	67.46
357.492	149.07
357.711	33.26
357.929	46.18
358.148	-390.67
358.366	164.91
358.585	179.78
358.803	-148.51
359.021	639.82
359.24	0.62
359.458	-185.92
359.676	24.44
359.894	-0.96
360.113	76.3
360.331	51.09
360.549	282.86
360.767	-16.81
360.985	-122.39
361.203	-53.63
361.421	53.06
361.639	-11.91
361.857	40.35
362.075	69.67
362.293	52.35
362.511	-183.54
362.729	-161.14
362.947	-28.78
363.165	214.37
363.383	57.41
363.601	-10.42
363.819	-15.23
364.036	49.41
364.254	123.35
364.472	-13.15
364.689	67.32
364.907	64.5
365.125	401.25
365.342	-117.34
365.56	53.83
365.778	-22.4
365.995	-45.63
366.213	93.55
366.43	10.88
366.648	-42.01
366.865	67.65
367.083	114.03
367.3	-209.85
367.517	-71.97
367.735	14.47
367.952	-5.41
368.17	32.63
368.387	46.97
368.604	29.99
368.821	104.83
369.039	11.28
369.256	9.21
369.473	14.56
369.69	130.7
369.907	5000
370.124	1100
370.341	67.65
370.558	27.84
370.776	27.2
370.993	70.16
371.21	63.66
371.426	-16.37
371.643	32.25
371.86	28.59
372.077	86.9
372.294	18.88
372.511	39.7
372.728	12.44
372.945	42.79
373.161	-40.58
373.378	47.08
373.595	-20.41
373.811	50.27
374.028	13.04
374.245	26.39
374.461	63.29
374.678	48.77
374.895	-33.68
375.111	78.18
375.328	86.8
375.544	994.59
375.761	-15.19
375.977	61.68
376.194	38.78
376.41	-116.37
376.626	-27.25
376.843	72.45
377.059	52.18
377.275	11.76
377.492	45.66
377.708	-30.98
377.924	19.33
378.14	23.68
378.357	169.27
378.573	141.46
378.789	22.72
379.005	47.06
379.221	-65.27
379.437	-61.07
379.653	17.31
379.869	71.96
380.085	-36.06
380.301	13.87
380.517	87.28
380.733	26.84
380.949	50.4
381.165	32.42
381.381	65.87
381.597	46.64
381.813	26.3
382.028	67.02
382.244	-4
382.46	13.5
382.676	12.61
382.891	-30.87
383.107	36.77
383.323	60.59
383.538	-30.04
383.754	34.13
383.969	86.86
384.185	26.81
384.4	4.55
384.616	-49.08
384.831	50.9
385.047	-49.04
385.262	36.7
385.478	22.08
385.693	-12.03
385.909	69.17
386.124	39.68
386.339	22.3
386.554	7.67
386.77	-7.99
386.985	-22.64
387.2	28.9
387.415	85.67
387.631	38.58
387.846	6.52
388.061	16.07
388.276	8.38
388.491	9.55
388.706	-18.57
388.921	-7.74
389.136	-6.66
389.351	40.41
389.566	-7.87
389.781	38.63
389.996	52.44
390.211	23.08
390.426	42.27
390.641	-15.18
390.855	-40.68
391.07	14.07
391.285	-63.58
391.5	-21.57
391.714	32.35
391.929	26.94
392.144	29.94
392.358	15.57
392.573	-10.66
392.788	32.14
393.002	10.14
393.217	33.04
393.431	14.5
393.646	15.51
393.86	13.09
394.075	14.96
394.289	6.11
394.504	16.67
394.718	2.15
394.933	0.22
395.147	3.61
395.361	13.3
395.576	9.84
395.79	0.22
396.004	12.49
396.218	-0.35
396.432	7.38
396.647	0.99
396.861	-0.69
397.075	25.96
397.289	14.98
397.503	17.14
397.717	8.17
397.931	8.41
398.145	0.19
398.359	22.39
398.573	10.15
398.787	2.82
399.001	3.99
399.215	19.97
399.429	2.09
399.643	7.93
399.857	-2.86
400.07	11.89
400.284	11.15
400.498	8.4
400.712	4.59
400.925	8.26
401.139	1.21
401.353	-0.17
401.566	18.43
401.78	6.01
401.994	11.57
402.207	6.4
402.421	6.59
402.634	0.41
402.848	12.97
403.061	15.98
403.275	16.63
403.488	10.79
403.702	-0.38
403.915	11.19
404.128	4.64
404.342	6.91
404.555	-3.61
404.768	18.42
404.982	7.57
405.195	5.49
405.408	10.26
405.621	4.9
405.835	8.38
406.048	6
406.261	6.95
406.474	11.29
406.687	15.9
406.9	7.61
407.113	9.02
407.326	9.49
407.539	4.59
407.752	6.95
407.965	6.81
408.178	5.97
408.391	8.92
408.604	5.58
408.817	6.08
409.029	4.33
409.242	8.3
409.455	4.36
409.668	6.27
409.881	8.91
410.093	6.49
410.306	6.02
410.519	1.7
410.731	4.7
410.944	7.27
411.157	9.12
411.369	2.67
411.582	7.95
411.794	8.81
412.007	8.19
412.219	8.14
412.432	5.85
412.644	5.3
412.857	5.35
413.069	10.22
413.281	8.27
413.494	12.5
413.706	12.03
413.918	7.16
414.131	7.37
414.343	5.78
414.555	8.48
414.767	10.65
414.979	8.25
415.192	6.46
415.404	7.65
415.616	6.29
415.828	6.4
416.04	5.81
416.252	10.07
416.464	5.78
416.676	7.83
416.888	8.07
417.1	4.23
417.312	11.91
417.524	7.06
417.736	6.92
417.948	6.35
418.159	8.61
418.371	10.15
418.583	8.4
418.795	9.99
419.007	8.62
419.218	4.82
419.43	10.04
419.642	6.8
419.853	7.12
420.065	8.16
420.276	10.25
420.488	12
420.7	8.44
420.911	8.31
421.123	10.76
421.334	9.27
421.546	8.76
421.757	6.35
421.969	9.71
422.18	9.18
422.391	7.76
422.603	9.1
422.814	10.39
423.025	9.74
423.237	10.38
423.448	12.39
423.659	10.86
423.87	7.44
424.082	9.34
424.293	9.01
424.504	13.43
424.715	12.44
424.926	10.45
425.137	8.76
425.348	12.95
425.559	10.54
425.77	14.12
425.981	11.2
426.192	12.24
426.403	11.61
426.614	10.2
426.825	11.92
427.036	12.74
427.247	9.71
427.458	14.15
427.668	11.38
427.879	12.63
428.09	11.77
428.301	10.15
428.511	11.72
428.722	10.74
428.933	12.63
429.143	12.02
429.354	13.81
429.565	12.72
429.775	14.68
429.986	13.61
430.196	11.06
430.407	12.01
430.617	14.83
430.828	13.28
431.038	14.98
431.249	13.94
431.459	13.65
431.669	15.66
431.88	16.45
432.09	15.01
432.3	15.36
432.511	13.04
432.721	18.79
432.931	17.19
433.141	16.25
433.351	17.23
433.562	16.68
433.772	17.1
433.982	14.98
434.192	19.28
434.402	17.35
434.612	16.25
434.822	18.19
435.032	19.73
435.242	20.34
435.452	18.14
435.662	19.24
435.872	18.17
436.082	22.76
436.292	22.2
436.502	23.08
436.711	21.37
436.921	21.73
437.131	25.25
437.341	22.7
437.551	26.75
437.76	26.03
437.97	26.17
438.18	26.13
438.389	26.03
438.599	27.93
438.808	25.38
439.018	29.91
439.228	29.58
439.437	27.99
439.647	29.02
439.856	30.78
440.066	31.16
440.275	33.67
440.484	35.86
440.694	32.82
440.903	33.95
441.113	36.89
441.322	35.77
441.531	39.62
441.741	36.49
441.95	38.94
442.159	42.51
442.368	39.5
442.577	40.2
442.787	41.08
442.996	39.35
443.205	41.05
443.414	42.96
443.623	45.61
443.832	46.13
444.041	48.06
444.25	49.95
444.459	46.15
444.668	52.56
444.877	54.15
445.086	51.86
445.295	53.15
445.504	53.3
445.713	57.9
445.922	53.25
446.13	56.57
446.339	56.56
446.548	57.52
446.757	58.64
446.965	58.12
447.174	57.02
447.383	63.47
447.591	62.4
447.8	60.01
448.009	61.62
448.217	64.43
448.426	65.26
448.634	67.86
448.843	63.88
449.051	66.8
449.26	70.04
449.468	69.49
449.677	70.15
449.885	70.03
450.093	64.41
450.302	66.73
450.51	67.12
450.719	68.26
450.927	67.52
451.135	68.87
451.343	66.2
451.552	70.29
451.76	66.17
451.968	64.9
452.176	62.25
452.384	67.7
452.592	65.1
452.8	65.6
453.009	62.11
453.217	61.65
453.425	62.88
453.633	59.79
453.841	59.75
454.049	61.92
454.257	57.45
454.464	57.69
454.672	55.34
454.88	55.11
455.088	55.73
455.296	50.65
455.504	54.64
455.711	53.7
455.919	47.89
456.127	49.64
456.335	50.17
456.542	50.11
456.75	45.57
456.958	45.22
457.165	47.53
457.373	43.79
457.581	40.51
457.788	42.77
457.996	41.51
458.203	42.34
458.411	43.07
458.618	38.76
458.826	37.28
459.033	39.27
459.24	39.94
459.448	36.26
459.655	36.57
459.863	35.7
460.07	32.36
460.277	35.36
460.484	35.15
460.692	34.17
460.899	30.33
461.106	31.53
461.313	28.43
461.52	27.27
461.728	29.26
461.935	31.42
462.142	28.2
462.349	30.75
462.556	28.19
462.763	29.25
462.97	25
463.177	27.1
463.384	23.05
463.591	24.06
463.798	25.96
464.005	23.6
464.212	22.95
464.418	24.12
464.625	22.94
464.832	22.8
465.039	22.26
