Data from x0_Transmission_15-15-49-167.txt Node
Date: Thu May 02 15:15:49 EDT 2019
User: dh1006
Spectrometer: USB4E01358
Autoset integration time: false
Trigger mode: 4
Integration Time (sec): 8.000000E-2
Scans to average: 1
Electric dark correction enabled: true
Nonlinearity correction enabled: false
Boxcar width: 0
Stray light correction enabled: false
XAxis mode: Wavelengths
Stop averaging: false
Number of Pixels in Spectrum: 3648
>>>>>Begin Spectral Data<<<<<
176.727	-196.67
176.966	-196.67
177.205	-196.67
177.444	179.21
177.683	-49.13
177.922	94.29
178.161	101.85
178.4	46
178.638	6975
178.877	404.35
179.116	348.42
179.355	-795.45
179.593	-33.86
179.832	64.92
180.071	13.16
180.309	-355.56
180.548	30.99
180.786	-30.22
181.025	-9275
181.263	-65.17
181.502	-24.79
181.74	74.36
181.979	44.76
182.217	-221.97
182.456	100.39
182.694	88.29
182.932	38.57
183.17	17.64
183.409	-137.41
183.647	54.1
183.885	266.32
184.123	108.92
184.361	238.85
184.6	8.12
184.838	4122.22
185.076	-105.36
185.314	-63.83
185.552	67.94
185.79	-105.82
186.028	5.65
186.266	61.68
186.503	142.4
186.741	157.99
186.979	-40.6
187.217	-500
187.455	199.16
187.693	40.49
187.93	46.3
188.168	1043.75
188.406	80.03
188.643	44.94
188.881	-801.45
189.119	219.94
189.356	-524.07
189.594	112.18
189.831	-16.53
190.069	-7.22
190.306	-25.84
190.543	45.68
190.781	173.31
191.018	-3.25
191.256	-180.33
191.493	-159.31
191.73	-54.57
191.967	-430.36
192.205	-114.95
192.442	-43.24
192.679	-4725
192.916	-329.38
193.153	57.14
193.39	-987.5
193.628	256.36
193.865	-97.54
194.102	108.73
194.339	29
194.576	138.27
194.813	40.67
195.049	-183.12
195.286	20
195.523	28.29
195.76	-81.87
195.997	94.09
196.234	68.75
196.47	-35.96
196.707	-150.75
196.944	33.42
197.18	-29.47
197.417	-12.5
197.654	22.97
197.89	69.71
198.127	88.79
198.363	-126.44
198.6	-14.9
198.836	239.56
199.073	51.36
199.309	31.92
199.546	54.84
199.782	-64.62
200.018	-66.67
200.255	78.86
200.491	-1013.95
200.727	115.79
200.963	62.89
201.199	-54.58
201.436	223.03
201.672	-79.01
201.908	83.74
202.144	-34.36
202.38	-103.16
202.616	-64.25
202.852	44.88
203.088	-0.72
203.324	-253.68
203.56	-468.29
203.796	-66.67
204.032	-25.88
204.268	-283.33
204.503	317.58
204.739	146.24
204.975	-27.27
205.211	-37.78
205.446	119.18
205.682	6.37
205.918	-1165.12
206.153	3.77
206.389	150
206.625	117.09
206.86	62.84
207.096	-77.5
207.331	13.66
207.567	-3.76
207.802	-84.35
208.037	166.96
208.273	-29.03
208.508	270.37
208.744	13.16
208.979	14.83
209.214	-9600
209.449	-54.15
209.685	-49.63
209.92	56.07
210.155	100.84
210.39	-9.3
210.625	-128.57
210.86	-39.04
211.095	239.22
211.33	10.71
211.565	17.59
211.8	-216.09
212.035	-360.33
212.27	87.42
212.505	159.22
212.74	87.31
212.975	622.73
213.21	139.49
213.444	-6.08
213.679	-59.87
213.914	25.95
214.149	-28.95
214.383	34.08
214.618	44.92
214.853	-1.48
215.087	73.12
215.322	-25.84
215.556	-62.31
215.791	-137.21
216.025	133.88
216.26	-73.25
216.494	782.43
216.729	125.93
216.963	-9.3
217.197	38.01
217.432	20.61
217.666	625.61
217.9	16.76
218.135	18.09
218.369	4266.67
218.603	227.84
218.837	41.83
219.071	144.92
219.306	68.03
219.54	28.13
219.774	35.19
220.008	196.71
220.242	-392.56
220.476	1794.12
220.71	37.43
220.944	46.42
221.178	-690.24
221.411	46.9
221.645	1.57
221.879	80.8
222.113	-2060
222.347	74.93
222.58	-40.4
222.814	-21.05
223.048	-42.59
223.281	18.64
223.515	408.85
223.749	-191.25
223.982	-20.28
224.216	540
224.449	4.61
224.683	-151.84
224.916	-126.85
225.15	142.56
225.383	72
225.617	-36.31
225.85	60.13
226.083	263.04
226.317	22.36
226.55	3.02
226.783	354.63
227.016	9.53
227.25	874.29
227.483	-337.5
227.716	13.89
227.949	24.66
228.182	-76.27
228.415	-47.47
228.648	-118.12
228.881	78.97
229.114	-16.62
229.347	9.24
229.58	579
229.813	76.61
230.046	-106.06
230.279	-24.87
230.512	21.22
230.745	-49.83
230.977	77.78
231.21	-15.16
231.443	64.43
231.675	122.69
231.908	-958.82
232.141	125.16
232.373	-363.16
232.606	-155.1
232.839	-105.82
233.071	-72.44
233.304	-175
233.536	-718.95
233.769	278.8
234.001	45.81
234.233	378.7
234.466	51.64
234.698	322.06
234.93	-168.28
235.163	67.32
235.395	-227.91
235.627	-130.68
235.86	-801.45
236.092	120.3
236.324	54.59
236.556	16.19
236.788	-32.73
237.02	93.24
237.252	52.82
237.484	130.72
237.716	-1193.33
237.948	-10.89
238.18	187.6
238.412	55.28
238.644	119.53
238.876	-134.37
239.108	-26.9
239.34	288.52
239.571	-78.07
239.803	21.13
240.035	280
240.267	65.66
240.498	-6133.33
240.73	373.77
240.962	68.34
241.193	86.64
241.425	53.67
241.656	-60.43
241.888	36.96
242.119	16.27
242.351	-1769.77
242.582	297.17
242.814	47.93
243.045	10.07
243.277	-111.94
243.508	764.86
243.739	176.3
243.971	50.64
244.202	28.47
244.433	-101.73
244.664	48.73
244.896	63.61
245.127	-20.12
245.358	-430.36
245.589	-64.16
245.82	189.34
246.051	-42.38
246.282	30.47
246.513	-47.19
246.744	46.88
246.975	435.37
247.206	62.05
247.437	30.99
247.668	-524.07
247.899	95.05
248.129	36.25
248.36	-73.67
248.591	7.17
248.822	71.81
249.052	-189.55
249.283	21.74
249.514	17.71
249.744	3.92
249.975	-10.44
250.206	1.57
250.436	-136.47
250.667	453.96
250.897	-12.16
251.128	-31.17
251.358	431.08
251.589	218.61
251.819	75.71
252.049	53.79
252.28	29.45
252.51	-39.19
252.74	-92.41
252.971	-3425
253.201	-17.25
253.431	-22.67
253.661	-58.49
253.891	-12.5
254.121	-19.82
254.352	-14.67
254.582	1282.86
254.812	17.93
255.042	-88.44
255.272	-29.13
255.502	58.15
255.732	2388.89
255.962	522.95
256.192	-13.76
256.421	23.43
256.651	-147.31
256.881	-89.78
257.111	73.28
257.341	25.4
257.57	50.36
257.8	-7.03
258.03	114.22
258.259	27.96
258.489	7.16
258.719	-67.51
258.948	-39.33
259.178	100.46
259.407	236.28
259.637	1.43
259.866	60.63
260.096	-173.37
260.325	101.16
260.555	210.08
260.784	-3.82
261.013	-12.5
261.243	20.48
261.472	-43.24
261.701	60.44
261.931	-125.76
262.16	157.56
262.389	24.62
262.618	-165.15
262.847	14.26
263.076	45.34
263.305	8.4
263.535	-138.21
263.764	28.04
263.993	13.46
264.222	70.07
264.451	-7.58
264.679	39.65
264.908	18.24
265.137	-2.91
265.366	29.94
265.595	-74.27
265.824	90.37
266.053	37.68
266.281	-319.65
266.51	-100.76
266.739	17.94
266.967	9.06
267.196	-500
267.425	140.1
267.653	-6.3
267.882	-79.41
268.11	119.05
268.339	-34.93
268.567	119.34
268.796	-52.1
269.024	637.5
269.253	-66.67
269.481	100.32
269.709	60.18
269.938	-28.65
270.166	39.02
270.394	-172.04
270.623	13.37
270.851	1.75
271.079	-94.84
271.307	30.93
271.535	133.04
271.764	3.3
271.992	389.72
272.22	-33.49
272.448	-21.05
272.676	39.77
272.904	-20.34
273.132	58.05
273.36	9.24
273.588	105.07
273.816	-24.91
274.043	7.39
274.271	135.93
274.499	83.56
274.727	-150.93
274.955	56.62
275.182	-17.41
275.41	-171.51
275.638	171.12
275.866	556.25
276.093	-108.48
276.321	21.23
276.548	56.88
276.776	35.29
277.003	115.97
277.231	577.14
277.458	-66.67
277.686	-45
277.913	-166.87
278.141	85.55
278.368	46
278.595	-24.9
278.823	-182.93
279.05	25.63
279.277	-26.77
279.505	37.93
279.732	-318.73
279.959	540
280.186	-4.91
280.413	22.32
280.641	101.16
280.868	71.69
281.095	-221.43
281.322	323.33
281.549	-9.24
281.776	46
282.003	11.61
282.23	-87.59
282.457	39.11
282.683	25.94
282.91	125.63
283.137	50.57
283.364	3163.64
283.591	-237.82
283.818	-6350
284.044	-197.67
284.271	65.8
284.498	96.37
284.724	14
284.951	7.52
285.178	45.94
285.404	6.37
285.631	37.82
285.857	-48.61
286.084	-101.42
286.31	10.55
286.537	-52.66
286.763	0.7
286.99	40.29
287.216	-933.33
287.442	-252.38
287.669	-28.9
287.895	18.44
288.121	248.2
288.347	100.84
288.574	29.23
288.8	-23.52
289.026	85.98
289.252	-122.44
289.478	33.58
289.704	17.29
289.931	61.36
290.157	-37.62
290.383	6.17
290.609	81.01
290.835	36.91
291.06	-54.57
291.286	4.99
291.512	289.02
291.738	170.97
291.964	46.54
292.19	-95.8
292.416	-276.34
292.641	94.1
292.867	11.06
293.093	2025.71
293.319	64.75
293.544	-179.92
293.77	-199.46
293.995	248.85
294.221	-26.43
294.447	37.43
294.672	68.07
294.898	45.65
295.123	-14.97
295.349	-22.78
295.574	-103.66
295.799	31.41
296.025	-40.5
296.25	20.55
296.476	384
296.701	31.33
296.926	-22.55
297.151	-307.95
297.377	-908.57
297.602	-109.18
297.827	-12.79
298.052	3.75
298.277	49.65
298.502	25.8
298.727	73.23
298.953	-8.06
299.178	9.58
299.403	68.34
299.628	72.85
299.852	57.14
300.077	723.53
300.302	-16.22
300.527	-113.96
300.752	15.59
300.977	475
301.202	863.93
301.426	-192.91
301.651	32.38
301.876	-93.75
302.101	-90.84
302.325	17.82
302.55	58.48
302.775	15.76
302.999	44.01
303.224	-14.76
303.448	-3.77
303.673	-415.74
303.897	31.92
304.122	41.44
304.346	82.76
304.571	-40.03
304.795	348.98
305.019	16.11
305.244	79.5
305.468	431.08
305.692	20
305.917	-70.25
306.141	38.01
306.365	800
306.589	7.62
306.813	52.41
307.038	-32.62
307.262	1.98
307.486	146.9
307.71	3075
307.934	79.71
308.158	71.1
308.382	-54.04
308.606	-122.06
308.83	-40.5
309.054	-193.78
309.278	65.13
309.502	75.38
309.725	33.53
309.949	48.19
310.173	31.7
310.397	20.3
310.62	120.9
310.844	-68.23
311.068	-118.12
311.292	51.36
311.515	3.55
311.739	1314.58
311.962	67.61
312.186	11.43
312.41	-6.46
312.633	-40.04
312.857	92.58
313.08	-391.67
313.303	-42.8
313.527	31.7
313.75	10.56
313.974	22.91
314.197	16.25
314.42	154.5
314.644	-27.51
314.867	-91.55
315.09	45.16
315.313	17.55
315.536	13.16
315.76	-24.83
315.983	-33.66
316.206	60.18
316.429	20
316.652	-89.78
316.875	42.9
317.098	5.56
317.321	42.94
317.544	353.13
317.767	38.99
317.99	-55.66
318.213	-5.97
318.436	-35.13
318.658	-57.01
318.881	-62.08
319.104	-4.76
319.327	-11.01
319.55	188.84
319.772	170.61
319.995	1276.67
320.218	34.79
320.44	191.27
320.663	-14.97
320.885	-8.38
321.108	28.71
321.331	-54.79
321.553	-2.22
321.776	1125
321.998	49.81
322.22	-58.17
322.443	61.36
322.665	-101.33
322.888	38.74
323.11	123.45
323.332	2.42
323.555	194.61
323.777	-43.86
323.999	-58.83
324.221	92.37
324.443	55.86
324.666	-38.94
324.888	68.15
325.11	-113.22
325.332	-173.37
325.554	-83.02
325.776	39.88
325.998	-1195.35
326.22	-10.14
326.442	4.03
326.664	-19.68
326.886	-89.15
327.108	55.86
327.33	20
327.551	13.03
327.773	-36.46
327.995	-10.31
328.217	-2.73
328.439	11.48
328.66	45.22
328.882	112.4
329.104	196.43
329.325	35.98
329.547	47.16
329.769	14.85
329.99	73.44
330.212	224.59
330.433	-13.41
330.655	25.27
330.876	71.74
331.098	693.44
331.319	22.77
331.54	-26.29
331.762	16.9
331.983	37.75
332.204	-71.52
332.426	104.12
332.647	-69.1
332.868	37.44
333.089	33.45
333.311	-25.72
333.532	-55.15
333.753	-1496.67
333.974	-48.82
334.195	-44.29
334.416	25.3
334.637	-192.47
334.858	37.43
335.079	-38.16
335.3	-35.88
335.521	3.02
335.742	121.74
335.963	-41.03
336.184	16.4
336.405	14.64
336.626	24.36
336.846	55.38
337.067	91.19
337.288	43.82
337.509	-2190
337.729	68.75
337.95	-1225.58
338.171	-114.57
338.391	46.62
338.612	61.6
338.833	1125
339.053	-96.96
339.274	47.37
339.494	31.82
339.715	294.44
339.935	96.52
340.156	70.13
340.376	-18.44
340.596	-55.66
340.817	985.71
341.037	121.2
341.257	-29.03
341.478	45.39
341.698	100.54
341.918	-12.5
342.138	-53.44
342.359	-59.68
342.579	-36.13
342.799	-106.06
343.019	5.2
343.239	10.16
343.459	34.32
343.679	69.71
343.899	32.84
344.119	-4.35
344.339	-43.35
344.559	-5.68
344.779	216.97
344.999	-81.98
345.219	6.8
345.439	-1.84
345.658	7444.44
345.878	177.08
346.098	-18.52
346.318	-18.07
346.537	1509.09
346.757	117.05
346.977	113.01
347.196	54.73
347.416	85
347.636	38.01
347.855	182.77
348.075	-12.5
348.294	-77.5
348.514	162.04
348.733	-1.27
348.953	-390.53
349.172	-95.56
349.392	8.4
349.611	41.36
349.83	-19.57
350.05	-62.41
350.269	-28.61
350.488	-15.32
350.707	575.86
350.927	-10.75
351.146	18.27
351.365	-20.54
351.584	66.29
351.803	22.11
352.023	16.49
352.242	81.11
352.461	54.67
352.68	28.29
352.899	-16.32
353.118	-128.57
353.337	61.36
353.556	-40.06
353.775	46.18
353.993	-71.07
354.212	13.42
354.431	-3.16
354.65	35.23
354.869	4.85
355.088	18.4
355.306	114.19
355.525	-18.82
355.744	-68.35
355.962	-38.71
356.181	237.84
356.4	-81.87
356.618	-15.93
356.837	-28.17
357.055	-100.41
357.274	41.15
357.492	-126.85
357.711	53.28
357.929	-22.76
358.148	-355.56
358.366	62.57
358.585	-76.4
358.803	-169.64
359.021	638.94
359.24	-23.33
359.458	-115.16
359.676	56.06
359.894	27.15
360.113	74.46
360.331	34.86
360.549	1542.86
360.767	9.85
360.985	111.19
361.203	-18.7
361.421	15.07
361.639	-45
361.857	21.86
362.075	-6.46
362.293	37.21
362.511	-207.91
362.729	-47.83
362.947	-60.33
363.165	-199.38
363.383	8.36
363.601	39.5
363.819	47.72
364.036	-65.2
364.254	196.19
364.472	-36.85
364.689	89.58
364.907	-4.76
365.125	60.63
365.342	-169.36
365.56	107.12
365.778	-31.15
365.995	-402.5
366.213	24.19
366.43	85.5
366.648	-77.95
366.865	54.41
367.083	51.87
367.3	-140.53
367.517	125.38
367.735	77.41
367.952	-34.24
368.17	32.71
368.387	28.23
368.604	28.86
368.821	163.45
369.039	50.41
369.256	35.29
369.473	45.52
369.69	-78.07
369.907	1125
370.124	2277.27
370.341	207.35
370.558	38.76
370.776	4.21
370.993	65.72
371.21	-108.17
371.426	4.26
371.643	-0.81
371.86	18.47
372.077	6.55
372.294	-10.84
372.511	-57.31
372.728	10.64
372.945	46.76
373.161	-1.8
373.378	58.77
373.595	-4.12
373.811	-5.38
374.028	-20.67
374.245	7.65
374.461	-51.58
374.678	43.04
374.895	-50.74
375.111	17.8
375.328	30.41
375.544	922.97
375.761	71.81
375.977	30.56
376.194	-10.84
376.41	-104.68
376.626	13.02
376.843	-10.43
377.059	11.54
377.275	-24.93
377.492	33.81
377.708	27.58
377.924	4.45
378.14	10.44
378.357	63.62
378.573	-26.9
378.789	18.12
379.005	56.22
379.221	-39.09
379.437	-31.11
379.653	-11.04
379.869	33.36
380.085	5.68
380.301	0.52
380.517	-24.94
380.733	3.52
380.949	-18.07
381.165	-14.73
381.381	7.28
381.597	7.53
381.813	24.39
382.028	12.59
382.244	6.83
382.46	85.53
382.676	-1.7
382.891	-60.59
383.107	20.3
383.323	-37.39
383.538	-58.83
383.754	-4.58
383.969	4.08
384.185	7.55
384.4	22.28
384.616	-30.08
384.831	33.77
385.047	-96.86
385.262	8.82
385.478	40.58
385.693	19.68
385.909	16.41
386.124	23.45
386.339	18.99
386.554	3.59
386.77	12.04
386.985	-19.69
387.2	-3.32
387.415	87.9
387.631	13.21
387.846	22.47
388.061	16.16
388.276	-71.76
388.491	14.71
388.706	-32.11
388.921	20.48
389.136	37.15
389.351	31.58
389.566	9.06
389.781	18.24
389.996	34.36
390.211	31
390.426	5.91
390.641	-4.71
390.855	-39.62
391.07	16.89
391.285	0.74
391.5	-5.26
391.714	8.88
391.929	24.45
392.144	22.13
392.358	-11.32
392.573	-17.36
392.788	-21.86
393.002	44.04
393.217	7.21
393.431	23.25
393.646	18.52
393.86	-12.58
394.075	2.21
394.289	2.93
394.504	3.43
394.718	3.16
394.933	4.75
395.147	17.85
395.361	16.07
395.576	36.57
395.79	-3.71
396.004	9.12
396.218	-8.71
396.432	-5.26
396.647	26.82
396.861	22.49
397.075	21.31
397.289	11.49
397.503	18.12
397.717	3.14
397.931	0.57
398.145	-5.59
398.359	21.64
398.573	6.28
398.787	13.9
399.001	5.77
399.215	30.09
399.429	13.78
399.643	4.71
399.857	13.69
400.07	8.8
400.284	11.46
400.498	7.35
400.712	19.44
400.925	22.07
401.139	-0.91
401.353	2.96
401.566	25.42
401.78	24.03
401.994	6.6
402.207	12.97
402.421	16.21
402.634	5.13
402.848	17.76
403.061	10.71
403.275	9.9
403.488	15.84
403.702	17.54
403.915	22.09
404.128	13.16
404.342	11.47
404.555	4.66
404.768	14.43
404.982	16.59
405.195	10.3
405.408	10.27
405.621	20.68
405.835	14.63
406.048	17.29
406.261	17.74
406.474	18.14
406.687	6.66
406.9	15.66
407.113	10.31
407.326	13.75
407.539	14.74
407.752	19
407.965	17.59
408.178	15.41
408.391	15.51
408.604	18.36
408.817	9.18
409.029	13.78
409.242	14.91
409.455	12.46
409.668	14.19
409.881	12.07
410.093	20.25
410.306	13.96
410.519	12.79
410.731	11.45
410.944	12.32
411.157	13.83
411.369	13.63
411.582	14
411.794	12.52
412.007	12.21
412.219	16.94
412.432	17.2
412.644	15.26
412.857	13.51
413.069	15.45
413.281	14.46
413.494	16.62
413.706	14.87
413.918	14.47
414.131	14.81
414.343	12.07
414.555	15.15
414.767	14.66
414.979	15.52
415.192	12.57
415.404	12.42
415.616	13.48
415.828	15.53
416.04	10.11
416.252	13.82
416.464	11.06
416.676	12.9
416.888	14.11
417.1	10.31
417.312	14.76
417.524	12.99
417.736	12.14
417.948	10.47
418.159	11.02
418.371	13.2
418.583	12.26
418.795	14.86
419.007	8.91
419.218	10.11
419.43	12.21
419.642	10.82
419.853	6.36
420.065	10.37
420.276	12.16
420.488	10.89
420.7	10.25
420.911	12.83
421.123	11.28
421.334	10.74
421.546	10.25
421.757	8.62
421.969	11.09
422.18	8.37
422.391	9.35
422.603	4.7
422.814	9.27
423.025	8.28
423.237	9.81
423.448	9.62
423.659	10.34
423.87	5.19
424.082	10.2
424.293	6.82
424.504	11.86
424.715	10.45
424.926	8.56
425.137	7.1
425.348	8.5
425.559	9.39
425.77	10.12
425.981	8.36
426.192	8.06
426.403	9.43
426.614	4.49
426.825	7.58
427.036	9.11
427.247	4.96
427.458	9.37
427.668	6.01
427.879	7.08
428.09	8
428.301	5.73
428.511	4.88
428.722	5.9
428.933	5.22
429.143	3.38
429.354	6.15
429.565	4.87
429.775	3.07
429.986	4.75
430.196	4.59
430.407	3.66
430.617	3.67
430.828	2.88
431.038	5.38
431.249	3.88
431.459	6.96
431.669	4.63
431.88	8.27
432.09	6.45
432.3	4.26
432.511	5.33
432.721	4.44
432.931	4.98
433.141	1.85
433.351	4.46
433.562	3.65
433.772	4.54
433.982	5.58
434.192	8.04
434.402	3
434.612	3.29
434.822	3.75
435.032	4.62
435.242	5.78
435.452	3.32
435.662	3.97
435.872	4.05
436.082	2.56
436.292	3.95
436.502	4.44
436.711	2.86
436.921	2.68
437.131	4.36
437.341	0.8
437.551	4.25
437.76	5.05
437.97	4.15
438.18	3.2
438.389	5.31
438.599	2.72
438.808	2.37
439.018	3.74
439.228	3.7
439.437	3.38
439.647	2.65
439.856	3.86
440.066	2.29
440.275	3.44
440.484	5.83
440.694	2.58
440.903	4.35
441.113	3.38
441.322	5.67
441.531	3.28
441.741	0.95
441.95	6.18
442.159	2.89
442.368	4.84
442.577	2.6
442.787	3.87
442.996	3.05
443.205	-0.48
443.414	1.87
443.623	5.28
443.832	3.67
444.041	2.29
444.25	4.64
444.459	4.93
444.668	2.38
444.877	3.75
445.086	3.52
445.295	3.23
445.504	4.21
445.713	4.87
445.922	1.69
446.13	1.82
446.339	1.04
446.548	0.31
446.757	5.38
446.965	-2.72
447.174	1.84
447.383	3.45
447.591	0.57
447.8	2.76
448.009	2.73
448.217	3.03
448.426	1.53
448.634	2.4
448.843	-2.23
449.051	3.79
449.26	2.01
449.468	6.57
449.677	3.95
449.885	0.38
450.093	2.92
450.302	3.63
450.51	4.16
450.719	1.61
450.927	-0.76
451.135	3.15
451.343	-0.62
451.552	5.89
451.76	3.52
451.968	2.7
452.176	3.37
452.384	2
452.592	0.93
452.8	3.07
453.009	0.82
453.217	1.95
453.425	1.71
453.633	2.96
453.841	3.57
454.049	1.51
454.257	3.03
454.464	5.45
454.672	2.39
454.88	3.42
455.088	0.23
455.296	3.72
455.504	5.87
455.711	0.75
455.919	2.34
456.127	1.61
456.335	5.04
456.542	3.27
456.75	1.01
456.958	2.49
457.165	3.09
457.373	0.23
457.581	-1.75
457.788	-1.09
457.996	2.16
458.203	-0.51
458.411	5.77
458.618	1.91
458.826	3.84
459.033	2.97
459.24	1.49
459.448	2.5
459.655	2.4
459.863	2.76
460.07	3.42
460.277	-0.44
460.484	2.19
460.692	4.44
460.899	-0.09
461.106	2.46
461.313	3.76
461.52	2.17
461.728	1.67
461.935	2.37
462.142	0.89
462.349	3.93
462.556	2.2
462.763	1.79
462.97	1.32
463.177	6.01
463.384	0.63
463.591	1.25
463.798	1.66
464.005	2.22
464.212	1.48
464.418	4.95
464.625	3.49
464.832	1.79
465.039	-1.12
465.246	0.93
465.452	3.25
465.659	4.03
