Data from x0_Transmission_15-16-15-565.txt Node
Date: Thu May 02 15:16:15 EDT 2019
User: dh1006
Spectrometer: USB4E01358
Autoset integration time: false
Trigger mode: 4
Integration Time (sec): 8.000000E-2
Scans to average: 1
Electric dark correction enabled: true
Nonlinearity correction enabled: false
Boxcar width: 0
Stray light correction enabled: false
XAxis mode: Wavelengths
Stop averaging: false
Number of Pixels in Spectrum: 3648
>>>>>Begin Spectral Data<<<<<
176.727	-230
176.966	-230
177.205	-230
177.444	192.13
177.683	95.38
177.922	56.53
178.161	92.59
178.4	4
178.638	875
178.877	-363.77
179.116	447.37
179.355	-690.91
179.593	81.27
179.832	-31.94
180.071	71.05
180.309	1055.56
180.548	73.94
180.786	163.24
181.025	-5950
181.263	-77.59
181.502	194.96
181.74	32.36
181.979	-19.52
182.217	-100
182.456	202.74
182.694	-58.86
182.932	17.62
183.17	44.18
183.409	-20.41
183.647	125.55
183.885	337.89
184.123	141.64
184.361	21.58
184.6	-53.81
184.838	3077.78
185.076	1200
185.314	-43.36
185.552	98.67
185.79	-24.3
186.028	43.54
186.266	94.29
186.503	2.63
186.741	133.17
186.979	7.52
187.217	10300
187.455	-45.38
187.693	76.63
187.93	88.85
188.168	35.42
188.406	143.75
188.643	17.76
188.881	-797.1
189.119	39.87
189.356	-569.44
189.594	22.91
189.831	-271.9
190.069	-100
190.306	62.01
190.543	17.16
190.781	143.43
191.018	20.49
191.256	411.48
191.493	-135.86
191.73	2.28
191.967	-192.86
192.205	-43.48
192.442	14.99
192.679	-13100
192.916	-392.5
193.153	69.42
193.39	-378.57
193.628	-36.97
193.865	-176.66
194.102	271.43
194.339	76.33
194.576	92.42
194.813	33.18
195.049	-75.62
195.286	101.41
195.523	60.56
195.76	-20.18
195.997	-44.09
196.234	13.04
196.47	-31.76
196.707	-100
196.944	59.71
197.18	16.13
197.417	11.72
197.654	58.97
197.89	83.53
198.127	39.91
198.363	-85.06
198.6	16.91
198.836	-48
199.073	26.46
199.309	47.88
199.546	18.58
199.782	-75.47
200.018	-1140
200.255	26.69
200.491	-1188.37
200.727	158.48
200.963	39.38
201.199	19.12
201.436	235.96
201.672	30.58
201.908	13.59
202.144	51.27
202.38	-154.74
202.616	8.94
202.852	80.2
203.088	19.77
203.324	-154.74
203.56	-385.37
203.796	15.84
204.032	-10.15
204.268	306.25
204.503	87.89
204.739	-84.97
204.975	-84.03
205.211	160
205.446	34.02
205.682	-4.25
205.918	-402.33
206.153	-11.19
206.389	308.06
206.625	89.24
206.86	86.14
207.096	-148.75
207.331	149.43
207.567	-309.68
207.802	-206.12
208.037	-26.52
208.273	-44.92
208.508	32.41
208.744	-65.79
208.979	0.9
209.214	-2050
209.449	22.02
209.685	-163.88
209.92	57.8
210.155	-18.07
210.39	123.38
210.625	132.14
210.86	-63.75
211.095	103.92
211.33	26.02
211.565	-653.7
211.8	-219.54
212.035	265.29
212.27	76.37
212.505	-136.88
212.74	104.57
212.975	845.45
213.21	140.18
213.444	-123.71
213.679	-3.81
213.914	-10.69
214.149	-81.53
214.383	36.5
214.618	70.08
214.853	-55.93
215.087	130.65
215.322	184.5
215.556	-34.67
215.791	-432.56
216.025	114.88
216.26	-9.12
216.494	163.51
216.729	44.44
216.963	-4.79
217.197	-3.02
217.432	36.28
217.666	137.8
217.9	34.4
218.135	-0.59
218.369	3077.78
218.603	195.81
218.837	3.3
219.071	-74.61
219.306	100.89
219.54	116.67
219.774	79
220.008	238.62
220.242	-271.9
220.476	-3311.76
220.71	45.25
220.944	92.15
221.178	169.51
221.411	-131.38
221.645	74.02
221.879	56.52
222.113	-1400
222.347	9.86
222.58	-47.47
222.814	18.18
223.048	273.15
223.281	-117.06
223.515	613.27
223.749	-343.75
223.982	-129.3
224.216	238
224.449	430.26
224.683	-64.86
224.916	-184.26
225.15	6.68
225.383	4
225.617	-8.92
225.85	37.85
226.083	154.35
226.317	27.64
226.55	-15.08
226.783	730.56
227.016	21.19
227.25	-360
227.483	-657.14
227.716	-38.94
227.949	-47.53
228.182	113.92
228.415	-25.95
228.648	-205.63
228.881	119.79
229.114	-70.7
229.347	57.32
229.58	693
229.813	15.32
230.046	-85.23
230.279	-14.21
230.512	41.97
230.745	-12.34
230.977	30.9
231.21	56.28
231.443	-145.03
231.675	129.41
231.908	741.18
232.141	90.45
232.373	118.95
232.606	368.71
232.839	35.74
233.071	-111.56
233.304	-16.29
233.536	-31.58
233.769	139.63
234.001	27.51
234.233	-75.93
234.466	17.63
234.698	129.41
234.93	-104.48
235.163	14.48
235.395	-251.16
235.627	-188.64
235.86	-213.04
236.092	130.96
236.324	7.34
236.556	52.28
236.788	67.07
237.02	-67.04
237.252	66.28
237.484	90.04
237.716	-620
237.948	63.04
238.18	190.08
238.412	278.89
238.644	153.91
238.876	290
239.108	23.42
239.34	-398.36
239.571	14.04
239.803	16.12
240.035	155.59
240.267	94.23
240.498	-1255.56
240.73	432.79
240.962	-47.74
241.193	120.58
241.425	5.46
241.656	171.22
241.888	76.63
242.119	35.29
242.351	81.4
242.582	34.91
242.814	157.85
243.045	28.65
243.277	-90.3
243.508	233.78
243.739	110.4
243.971	34.55
244.202	25.21
244.433	-107.51
244.664	41.78
244.896	-9.49
245.127	2.72
245.358	-610.71
245.589	-17.34
245.82	225.94
246.051	-0.9
246.282	32.62
246.513	338.2
246.744	15.86
246.975	-385.37
247.206	-134.32
247.437	2.54
247.668	-376.85
247.899	92.99
248.129	111.25
248.36	-36.95
248.591	7.85
248.822	27.95
249.052	-177.61
249.283	-45.91
249.514	15.68
249.744	50.1
249.975	-153.48
250.206	36.48
250.436	-72.34
250.667	-43.88
250.897	71.55
251.128	13.4
251.358	-222.97
251.589	156.39
251.819	88.81
252.049	-85.92
252.28	60.73
252.51	-17.56
252.74	2.97
252.971	-750
253.201	55.85
253.431	22.95
253.661	-106.13
253.891	70.62
254.121	28.83
254.352	148.44
254.582	-545.71
254.812	-1.59
255.042	-178.39
255.272	-120.47
255.502	-82.34
255.732	-100
255.962	667.21
256.192	77.47
256.421	-185.81
256.651	-3.81
256.881	-105.78
257.111	75.36
257.341	14.09
257.57	63.21
257.8	9.33
258.03	59.02
258.259	50.07
258.489	24.02
258.719	55.19
258.948	-80.81
259.178	95.15
259.407	325.66
259.637	-13.33
259.866	-116.25
260.096	-269.85
260.325	132.95
260.555	102.1
260.784	-15.65
261.013	-1121.43
261.243	-34.64
261.472	444.59
261.701	148.44
261.931	47.73
262.16	10.85
262.389	38.58
262.618	-144.32
262.847	14.86
263.076	92.8
263.305	43.31
263.535	-130.66
263.764	-14.23
263.993	69.26
264.222	11.6
264.451	-1.52
264.679	18.43
264.908	25.9
265.137	54.63
265.366	30.41
265.595	154.68
265.824	39.14
266.053	30.74
266.281	-205.2
266.51	28.68
266.739	18.34
266.967	2.81
267.196	9650
267.425	45.18
267.653	24.05
267.882	-36.91
268.11	622.22
268.339	97.75
268.567	-81.6
268.796	-154.62
269.024	-1005.36
269.253	-144.36
269.481	140.13
269.709	18.18
269.938	-1.17
270.166	1.46
270.394	-44.68
270.623	53.22
270.851	-115.2
271.079	51.57
271.307	21.5
271.535	58.26
271.764	12.85
271.992	296.45
272.22	18.18
272.448	97.66
272.676	44.44
272.904	43.45
273.132	-0.65
273.36	78.03
273.588	199.54
273.816	-14.91
274.043	-39.95
274.271	110.1
274.499	200.44
274.727	-160.19
274.955	35.49
275.182	-26.11
275.41	-93.01
275.638	-10.83
275.866	2229.17
276.093	97.66
276.321	10.38
276.548	28.37
276.776	-37.69
277.003	-17.99
277.231	754.29
277.458	1.96
277.686	-189.38
277.913	241.25
278.141	93.34
278.368	6.36
278.595	1.81
278.823	-432.93
279.05	31.41
279.277	-90.79
279.505	-73.1
279.732	-276.1
279.959	85.71
280.186	-0.98
280.413	-10.46
280.641	-167.63
280.868	-42.57
281.095	151.26
281.322	-1443.33
281.549	-16.47
281.776	-29.09
282.003	12.76
282.23	-194.14
282.457	74.02
282.683	15.89
282.91	-213.75
283.137	54.67
283.364	1259.09
283.591	-61.76
283.818	1850
284.044	-886.05
284.271	71.76
284.498	-288.78
284.724	-32.47
284.951	78.73
285.178	17.63
285.404	3.12
285.631	71.57
285.857	-43.58
286.084	-283.96
286.31	-76.36
286.537	14.09
286.763	-8
286.99	22.13
287.216	2066.67
287.442	-321.09
287.669	27.22
287.895	30.58
288.121	376.98
288.347	-67.23
288.574	29.64
288.8	-36.65
289.026	-1.52
289.252	-1.32
289.478	-235.82
289.704	26.68
289.931	49.28
290.157	30.73
290.383	2.34
290.609	64.62
290.835	14.15
291.06	45.18
291.286	33.07
291.512	-137.57
291.738	115.67
291.964	48.48
292.19	3.78
292.416	-100
292.641	-23.34
292.867	-4.18
293.093	420
293.319	52.73
293.544	-6.44
293.77	-16.13
293.995	73.73
294.221	-50.48
294.447	88.83
294.672	36.55
294.898	18.68
295.123	101.27
295.349	76.9
295.574	-131.71
295.799	53.12
296.025	-5.33
296.25	-31.14
296.476	251
296.701	16.37
296.926	-14.91
297.151	-228.03
297.377	382.86
297.602	6.96
297.827	52.4
298.052	119.38
298.277	69.96
298.502	-7.95
298.727	87.66
298.953	-37.84
299.178	75.52
299.403	193.97
299.628	-15.45
299.852	-23.53
300.077	-2700
300.302	56.3
300.527	-20.81
300.752	14.58
300.977	342
301.202	581.97
301.426	-38.58
301.651	-84.52
301.876	116.67
302.101	-131.08
302.325	32.18
302.55	-231.41
302.775	9.51
302.999	29.44
303.224	-21.01
303.448	53.03
303.673	-581.48
303.897	5.94
304.122	-38.35
304.346	59.82
304.571	16.61
304.795	121.09
305.019	25.25
305.244	53.93
305.468	427.03
305.692	333.33
305.917	-132.23
306.141	-26.11
306.365	816.39
306.589	-0.95
306.813	14.16
307.038	-53.57
307.262	110.23
307.486	57.86
307.71	-5300
307.934	56.38
308.158	42.77
308.382	-82.51
308.606	-91.96
308.83	-53.82
309.054	-204
309.278	-15.13
309.502	105.61
309.725	-39.88
309.949	12.25
310.173	22.03
310.397	70.42
310.62	94.03
310.844	-1.44
311.068	200.63
311.292	11.28
311.515	73.14
311.739	956.25
311.962	-56.06
312.186	57.71
312.41	-0.78
312.633	-66.95
312.857	42.4
313.08	-461.11
313.303	-42.16
313.527	-64.38
313.75	-27.06
313.974	-90.32
314.197	7.94
314.42	137.18
314.644	56.63
314.867	-0.45
315.09	-69.1
315.313	45.47
315.536	-19.14
315.76	-1.38
315.983	-109.58
316.206	-10.18
316.429	249.38
316.652	-111.56
316.875	72.84
317.098	21.98
317.321	-61.76
317.544	-132.5
317.767	-9.66
317.99	-166.05
318.213	-17.38
318.436	-71.2
318.658	-29.62
318.881	-44.92
319.104	5.24
319.327	27.22
319.55	101.99
319.772	214.7
319.995	-273.33
320.218	20.9
320.44	-17.46
320.663	137.56
320.885	-7.61
321.108	33.73
321.331	-87.28
321.553	-38.29
321.776	2175
321.998	29.9
322.22	-108.5
322.443	131.44
322.665	-157.78
322.888	46.4
323.11	6.22
323.332	39.29
323.555	295.1
323.777	-50.58
323.999	6.68
324.221	15.26
324.443	74.83
324.666	42.84
324.888	41.23
325.11	-508.26
325.332	193.97
325.554	4.25
325.776	52.02
325.998	867.44
326.22	163.77
326.442	43.22
326.664	-24.3
326.886	-63.21
327.108	-77.59
327.33	183.11
327.551	-1.63
327.773	18.86
327.995	112.78
328.217	47.4
328.439	-66.26
328.66	17.21
328.882	-368.6
329.104	-471.43
329.325	30.58
329.547	47.46
329.769	226.07
329.99	53.12
330.212	922.95
330.433	11.36
330.655	-10.76
330.876	104.42
331.098	581.97
331.319	-23.94
331.54	13.91
331.762	60.95
331.983	192.37
332.204	-44.62
332.426	-38.82
332.647	148.31
332.868	46.02
333.089	43.45
333.311	38.4
333.532	-39.53
333.753	-186.67
333.974	-17.79
334.195	-57.61
334.416	3.74
334.637	165.59
334.858	67.04
335.079	79.61
335.3	-123.09
335.521	-243.72
335.742	-702.9
335.963	61.26
336.184	65.13
336.405	25.15
336.626	43.29
336.846	-79.43
337.067	26.9
337.288	46.8
337.509	-1703.33
337.729	40.94
337.95	-583.72
338.171	-2.01
338.391	35.95
338.612	32.23
338.833	793.75
339.053	34.35
339.274	14.77
339.494	10.41
339.715	663.49
339.935	-91.77
340.156	29.45
340.376	-35.22
340.596	65.13
340.817	1274.29
341.037	-91.77
341.257	48.73
341.478	-17.76
341.698	-32.88
341.918	119.38
342.138	-23.09
342.359	-44.09
342.579	-43.48
342.799	47.73
343.019	52.2
343.239	36.84
343.459	161.65
343.679	91.18
343.899	2.72
344.119	-31.4
344.339	-17.72
344.559	21.98
344.779	475.15
344.999	17.9
345.219	35.73
345.439	5.77
345.658	6255.56
345.878	-18.75
346.098	-43.36
346.318	-15.96
346.537	-809.09
346.757	205.53
346.977	50.08
347.196	7.91
347.416	75.88
347.636	-37.66
347.855	9.24
348.075	-6.44
348.294	62.5
348.514	-437.04
348.733	-12.55
348.953	23.16
349.172	96.44
349.392	-59.06
349.611	-2.41
349.83	-100
350.05	-52.09
350.269	-77.9
350.488	-4.39
350.707	557.47
350.927	-1.22
351.146	44.68
351.365	-12.29
351.584	-6.44
351.803	5.69
352.023	24.74
352.242	50.05
352.461	113.78
352.68	-89.64
352.899	60.59
353.118	50.15
353.337	37.88
353.556	-20.18
353.775	3.82
353.993	-30.71
354.212	7.67
354.431	-2.87
354.65	-11.54
354.869	-6.04
355.088	7.53
355.306	29.45
355.525	30.49
355.744	9.6
355.962	74.73
356.181	567.57
356.4	-92.4
356.618	35.28
356.837	-47.21
357.055	-25.41
357.274	66.39
357.492	-461.11
357.711	6.67
357.929	-37.38
358.148	-377.33
358.366	158.48
358.585	104.49
358.803	-35.64
359.021	728.32
359.24	-37.41
359.458	-170.4
359.676	27.35
359.894	49.28
360.113	13.3
360.331	44.11
360.549	1422.86
360.767	30.22
360.985	-148.51
361.203	-10.69
361.421	26.53
361.639	-32.23
361.857	87.23
362.075	24.66
362.293	16.62
362.511	-128.8
362.729	-103.53
362.947	-55.61
363.165	-132.5
363.383	17.71
363.601	22.42
363.819	104.57
364.036	-5.09
364.254	51.78
364.472	-8.56
364.689	-56.06
364.907	36.94
365.125	111.25
365.342	-84.97
365.56	45.78
365.778	20.77
365.995	-262.5
366.213	109.68
366.43	98.47
366.648	-102.26
366.865	31.91
367.083	3.91
367.3	13.26
367.517	8.33
367.735	-86.8
367.952	-19.27
368.17	9.47
368.387	13.19
368.604	25.45
368.821	133.1
369.039	-4.45
369.256	12.54
369.473	20.6
369.69	-96.2
369.907	-4650
370.124	1909.09
370.341	174.02
370.558	66.19
370.776	23.93
370.993	140.14
371.21	-52.39
371.426	-6.73
371.643	-30.63
371.86	85.17
372.077	-28.28
372.294	-18.75
372.511	-17.94
372.728	-2.55
372.945	-29.26
373.161	-9.74
373.378	63.45
373.595	-91.96
373.811	22.17
374.028	-20.11
374.245	-15.96
374.461	64.56
374.678	53.91
374.895	-52.21
375.111	-14.62
375.328	64.99
375.544	637.84
375.761	80.07
375.977	38.04
376.194	69.13
376.41	-20.18
376.626	-19.73
376.843	17.55
377.059	26.89
377.275	1.27
377.492	67.31
377.708	-44.71
377.924	15.64
378.14	10.88
378.357	7.97
378.573	-62.97
378.789	34.81
379.005	34.53
379.221	-66.91
379.437	-67.75
379.653	-8.16
379.869	30.12
380.085	-44.58
380.301	25.41
380.517	-11.73
380.733	6.81
380.949	-14.25
381.165	58.35
381.381	10.92
381.597	38.9
381.813	26.61
382.028	-2.55
382.244	-49.47
382.46	-53.5
382.676	-24.7
382.891	-13.78
383.107	1.04
383.323	14.19
383.538	1.25
383.754	-17.21
383.969	24.36
384.185	42.45
384.4	44.33
384.616	30.34
384.831	72.19
385.047	-107.1
385.262	28.6
385.478	1.83
385.693	-17.86
385.909	30.6
386.124	-6.05
386.339	9.04
386.554	-6.55
386.77	22.32
386.985	-40.56
387.2	61.96
387.415	57.32
387.631	23
387.846	26.21
388.061	28.44
388.276	28.09
388.491	-2.35
388.706	-20.88
388.921	3.77
389.136	25.1
389.351	33.56
389.566	19.2
389.781	21.51
389.996	25.47
390.211	47.67
390.426	15.59
390.641	18.37
390.855	-7.14
391.07	18.02
391.285	12.35
391.5	15.86
391.714	18.31
391.929	30.95
392.144	15.53
392.358	-3.14
392.573	19.18
392.788	10.18
393.002	13.08
393.217	5.86
393.431	-12.25
393.646	1.83
393.86	8.38
394.075	2.36
394.289	12.72
394.504	23.73
394.718	6.7
394.933	7.68
395.147	5.23
395.361	6.92
395.576	28.85
395.79	5.5
396.004	18.14
396.218	0.39
396.432	9.76
396.647	24.42
396.861	29.01
397.075	30.8
397.289	13.15
397.503	11.63
397.717	13.35
397.931	8.53
398.145	2.76
398.359	16.27
398.573	5.95
398.787	22.76
399.001	5.5
399.215	20.08
399.429	20.87
399.643	10.31
399.857	25.42
400.07	10.95
400.284	12.4
400.498	6.72
400.712	7.47
400.925	15.56
401.139	14.21
401.353	21.42
401.566	18.77
401.78	16.35
401.994	11.37
402.207	13.02
402.421	0.96
402.634	3.14
402.848	17.81
403.061	19.43
403.275	17.79
403.488	18.2
403.702	21.08
403.915	8.21
404.128	17.56
404.342	2.95
404.555	0.15
404.768	10.9
404.982	15.88
405.195	13.05
405.408	13.01
405.621	15.17
405.835	15.54
406.048	7.78
406.261	20.78
406.474	19.16
406.687	7.41
406.9	15.06
407.113	16.74
407.326	15.82
407.539	13.71
407.752	12.58
407.965	16.9
408.178	18.26
408.391	14.97
408.604	14.99
408.817	12.3
409.029	15.57
409.242	16.59
409.455	11.7
409.668	14.48
409.881	13.96
410.093	10.99
410.306	16.4
410.519	10.1
410.731	11.72
410.944	13.49
411.157	12.98
411.369	9.38
411.582	13.61
411.794	13.28
412.007	16.37
412.219	15.36
412.432	12.49
412.644	17.14
412.857	12.36
413.069	14.1
413.281	16.26
413.494	18.76
413.706	15.63
413.918	10.93
414.131	15.01
414.343	12.18
414.555	11.53
414.767	15.11
414.979	12.69
415.192	10.08
415.404	11.09
415.616	13.16
415.828	14.21
416.04	12.19
416.252	14.39
416.464	10.76
416.676	13.88
416.888	13.51
417.1	12.13
417.312	12.09
417.524	12.06
417.736	10.24
417.948	8.59
418.159	8.42
418.371	14.19
418.583	8.73
418.795	12.03
419.007	13.01
419.218	8.98
419.43	8.64
419.642	9.2
419.853	8.2
420.065	11.32
420.276	7.65
420.488	9.14
420.7	11.6
420.911	10.85
421.123	9.37
421.334	6.93
421.546	7.81
421.757	11.5
421.969	10.14
422.18	9.33
422.391	8.93
422.603	8.15
422.814	10.73
423.025	8.74
423.237	9.24
423.448	10.09
423.659	9.38
423.87	7.97
424.082	9.85
424.293	9.03
424.504	8.84
424.715	8.91
424.926	8.63
425.137	4.23
425.348	7.26
425.559	7.68
425.77	8.16
425.981	8.03
426.192	7.62
426.403	6.15
426.614	5.45
426.825	6.32
427.036	8.19
427.247	5.59
427.458	7.83
427.668	5.36
427.879	6.59
428.09	7.95
428.301	3.44
428.511	3.62
428.722	4.88
428.933	4.7
429.143	5.04
429.354	5.11
429.565	6.72
429.775	5
429.986	4.7
430.196	5.28
430.407	3.08
430.617	2.71
430.828	4.14
431.038	4.58
431.249	4.42
431.459	3.93
431.669	4.23
431.88	7.47
432.09	6.69
432.3	3.89
432.511	4.9
432.721	6.81
432.931	3.94
433.141	1.99
433.351	2.52
433.562	3.1
433.772	4.32
433.982	4.22
434.192	6.73
434.402	1.89
434.612	2.58
434.822	5.19
435.032	4.17
435.242	5.62
435.452	2.82
435.662	1.3
435.872	2.57
436.082	2.34
436.292	3.59
436.502	3.83
436.711	2.64
436.921	1.19
437.131	3.73
437.341	1.07
437.551	3.65
437.76	6.13
437.97	0.53
438.18	1.82
438.389	3.61
438.599	2.11
438.808	2.56
439.018	4.46
439.228	3.84
439.437	4.12
439.647	3.67
439.856	3.63
440.066	2.95
440.275	3.09
440.484	4.9
440.694	3.36
440.903	4.77
441.113	3.83
441.322	2.25
441.531	4.57
441.741	3.94
441.95	3.24
442.159	3.97
442.368	5.1
442.577	1.91
442.787	5.56
442.996	4.54
443.205	-2
443.414	4.21
443.623	4.23
443.832	5.06
444.041	3.4
444.25	3.75
444.459	2.81
444.668	5.08
444.877	1.52
445.086	2.06
445.295	2.24
445.504	1.18
445.713	4.75
445.922	2.79
446.13	3.56
446.339	0.11
446.548	1.18
446.757	2.88
446.965	2.79
447.174	2.47
447.383	5.27
447.591	0.71
447.8	2.51
448.009	2.49
448.217	3.93
448.426	2.67
448.634	3.04
448.843	1.08
449.051	3.32
449.26	3.08
449.468	4.7
449.677	4.16
449.885	2.58
450.093	4.02
450.302	2.05
450.51	1.18
450.719	1.35
450.927	1.9
451.135	0.64
451.343	1.73
451.552	3.48
451.76	5.18
451.968	6.26
452.176	0.38
452.384	2.5
452.592	4.18
452.8	1.53
453.009	3.21
453.217	4.76
453.425	1.05
453.633	1.97
453.841	2.76
454.049	3.07
454.257	0.91
454.464	5.4
454.672	3.93
454.88	2.07
455.088	1.29
455.296	3.31
455.504	3.65
455.711	2.41
455.919	2.79
456.127	1.21
456.335	3.17
456.542	3.74
456.75	3.97
456.958	1.75
457.165	1.06
457.373	3.89
457.581	-0.55
457.788	0.24
457.996	0.71
458.203	2.53
458.411	3.07
458.618	-1.03
458.826	2.47
459.033	3.23
459.24	1.98
459.448	1.41
459.655	3.81
459.863	0.17
460.07	4.75
460.277	-0.43
460.484	4.7
460.692	4.2
460.899	0.1
461.106	-0.29
461.313	5.22
461.52	0.56
461.728	2.31
461.935	2.46
462.142	1.88
462.349	6.24
462.556	2.47
462.763	1.22
462.97	0.91
463.177	3.27
463.384	1.42
463.591	3.06
463.798	4.53
464.005	3.77
464.212	0.16
464.418	3.72
464.625	0.35
464.832	1.07
465.039	2.1
465.246	0.7
465.452	1.95
465.659	3.34
465.866	2.39
466.072	3
466.279	2.92
