Data from y0_Transmission_15-22-46-757.txt Node
Date: Thu May 02 15:22:46 EDT 2019
User: dh1006
Spectrometer: USB4E01358
Autoset integration time: false
Trigger mode: 4
Integration Time (sec): 8.000000E-2
Scans to average: 1
Electric dark correction enabled: true
Nonlinearity correction enabled: false
Boxcar width: 0
Stray light correction enabled: false
XAxis mode: Wavelengths
Stop averaging: false
Number of Pixels in Spectrum: 3648
>>>>>Begin Spectral Data<<<<<
176.727	-396.67
176.966	-396.67
177.205	-396.67
177.444	66.85
177.683	21.39
177.922	8.37
178.161	94.44
178.4	-128
178.638	-4925
178.877	373.91
179.116	627.37
179.355	186.36
179.593	-145.82
179.832	130.37
180.071	-38.6
180.309	1755.56
180.548	128.52
180.786	-128.97
181.025	-6550
181.263	62.07
181.502	130.25
181.74	-2.73
181.979	42.86
182.217	-189.02
182.456	139.53
182.694	-21.2
182.932	36.67
183.17	82.36
183.409	25.17
183.647	47.68
183.885	134.74
184.123	111.9
184.361	197.84
184.6	-23.6
184.838	3633.33
185.076	-26.79
185.314	25.05
185.552	19.1
185.79	-70.88
186.028	104.14
186.266	112.5
186.503	90.64
186.741	-48.4
186.979	-80.95
187.217	925
187.455	42.86
187.693	10.05
187.93	8.17
188.168	681.25
188.406	17.71
188.643	18.12
188.881	-398.55
189.119	163.92
189.356	58.33
189.594	65.82
189.831	-55.37
190.069	-197.83
190.306	-48.02
190.543	-9.88
190.781	268.53
191.018	6.02
191.256	706.56
191.493	-23.1
191.73	-188.58
191.967	19.64
192.205	-166.58
192.442	-29.24
192.679	-10775
192.916	-58.12
193.153	68.92
193.39	-653.57
193.628	426.67
193.865	-35.63
194.102	63.49
194.339	57.86
194.576	83.75
194.813	75.23
195.049	-82.5
195.286	21.41
195.523	-78.49
195.76	14.62
195.997	26.88
196.234	55.98
196.47	-38.06
196.707	-1.49
196.944	-77.15
197.18	29.93
197.417	-29.69
197.654	-0.23
197.89	99.12
198.127	-41.26
198.363	345.98
198.6	-7.25
198.836	120.44
199.073	40.21
199.309	79.12
199.546	27.59
199.782	-154.25
200.018	-830
200.255	110.79
200.491	-941.86
200.727	-76.61
200.963	-19.18
201.199	4.38
201.436	-57.3
201.672	19.19
201.908	38.35
202.144	54
202.38	-481.05
202.616	28.68
202.852	188.12
203.088	29.4
203.324	66.32
203.56	-1143.9
203.796	29.37
204.032	-55.74
204.268	1250
204.503	132.81
204.739	104.05
204.975	-77.15
205.211	-58.67
205.446	45.15
205.682	-0.28
205.918	-367.44
206.153	-49.23
206.389	40.28
206.625	176.27
206.86	62.27
207.096	-155.62
207.331	50.41
207.567	82.8
207.802	113.61
208.037	96.96
208.273	57.42
208.508	-218.52
208.744	26.02
208.979	48.96
209.214	-3300
209.449	32.13
209.685	-61.18
209.92	-38.73
210.155	-55.46
210.39	-136.06
210.625	367.86
210.86	-125.1
211.095	389.71
211.33	-10.2
211.565	-266.67
211.8	331.03
212.035	406.61
212.27	100.77
212.505	60.64
212.74	58.88
212.975	1604.55
213.21	146.65
213.444	98.18
213.679	-41.26
213.914	-35.11
214.149	-81.17
214.383	23.67
214.618	64.83
214.853	-85.81
215.087	152.69
215.322	129.79
215.556	31.66
215.791	-216.28
216.025	84.3
216.26	-87.54
216.494	336.49
216.729	214.81
216.963	28.73
217.197	8.88
217.432	56.42
217.666	29.27
217.9	-29.14
218.135	37.94
218.369	3344.44
218.603	257.49
218.837	56.22
219.071	5.86
219.306	103.55
219.54	92.19
219.774	15.99
220.008	109.58
220.242	-259.5
220.476	-317.65
220.71	135.2
220.944	65.59
221.178	-525.61
221.411	-135.17
221.645	43.83
221.879	74.83
222.113	-2303.33
222.347	72.68
222.58	-43.43
222.814	26.2
223.048	-278.7
223.281	-21
223.515	381.42
223.749	-115
223.982	-55.49
224.216	405
224.449	446.05
224.683	-67.57
224.916	-182.41
225.15	126.15
225.383	483
225.617	-27.23
225.85	27.65
226.083	215.65
226.317	-19.27
226.55	57.79
226.783	419.44
227.016	40.89
227.25	1454.29
227.483	437.5
227.716	45.4
227.949	84.08
228.182	65.19
228.415	36.39
228.648	-334.37
228.881	-62.06
229.114	-26.2
229.347	36.94
229.58	262
229.813	193.23
230.046	-25.38
230.279	15.99
230.512	68.64
230.745	44.34
230.977	94.44
231.21	70.77
231.443	5.54
231.675	-50
231.908	-700
232.141	45.22
232.373	-508.42
232.606	-72.11
232.839	-39.56
233.071	-93.33
233.304	-133.71
233.536	107.37
233.769	258.53
234.001	119.5
234.233	118.52
234.466	-18.56
234.698	211.27
234.93	-171.03
235.163	70.84
235.395	86.05
235.627	-40.15
235.86	-360.87
236.092	52.28
236.324	23.55
236.556	14.38
236.788	33.53
237.02	-22.54
237.252	47.18
237.484	16.1
237.716	-266.67
237.948	170.96
238.18	30.58
238.412	214.57
238.644	346.09
238.876	-9.37
239.108	-165.19
239.34	408.2
239.571	-30.99
239.803	59.04
240.035	176.95
240.267	87.16
240.498	-1277.78
240.73	-529.51
240.962	-138.19
241.193	172.92
241.425	68.64
241.656	57.55
241.888	-4.08
242.119	75.96
242.351	55.81
242.582	152.36
242.814	41.32
243.045	56.08
243.277	114.93
243.508	2.7
243.739	134.1
243.971	12.1
244.202	3.4
244.433	-113.87
244.664	-9.49
244.896	52.85
245.127	27.04
245.358	-1048.21
245.589	284.39
245.82	255.33
246.051	-17.94
246.282	76.51
246.513	-174.16
246.744	41.53
246.975	60.98
247.206	132.34
247.437	65.35
247.668	-242.59
247.899	55.88
248.129	-90.62
248.36	-66.51
248.591	63.68
248.822	-39.73
249.052	173.13
249.283	86.98
249.514	-8.19
249.744	10.31
249.975	28.16
250.206	-99.48
250.436	129.79
250.667	356.83
250.897	21.03
251.128	30.21
251.358	-172.97
251.589	137.78
251.819	-15.95
252.049	-24.19
252.28	75.27
252.51	50.41
252.74	72.28
252.971	2225
253.201	105.85
253.431	1.53
253.661	-117.45
253.891	331.87
254.121	-4.62
254.352	137.78
254.582	-254.29
254.812	25.1
255.042	116.58
255.272	-58.53
255.502	17.12
255.732	-122.22
255.962	450.82
256.192	25.75
256.421	102.31
256.651	5.38
256.881	45.33
257.111	105.97
257.341	98.61
257.57	55.33
257.8	1.68
258.03	152.75
258.259	-63.56
258.489	50.77
258.719	25.05
258.948	-50.87
259.178	35.57
259.407	162.83
259.637	76.9
259.866	-41.88
260.096	-190.45
260.325	81.5
260.555	86.55
260.784	31.87
261.013	-328.57
261.243	108.57
261.472	301.35
261.701	-87.56
261.931	-45.08
262.16	156.59
262.389	15.99
262.618	-89.39
262.847	83.13
263.076	65.68
263.305	-21
263.535	-123.58
263.764	50.52
263.993	56.67
264.222	23.9
264.451	18.94
264.679	-1.55
264.908	-26.58
265.137	35.33
265.366	22.45
265.595	132.46
265.824	-8.26
266.053	7.08
266.281	-151.45
266.51	-20.3
266.739	20.32
266.967	36.22
267.196	-3300
267.425	-36.8
267.653	-164.12
267.882	53.24
268.11	63.49
268.339	-62.82
268.567	-50
268.796	-263.03
269.024	321.43
269.253	-99.48
269.481	161.15
269.709	63.45
269.938	136.26
270.166	37.72
270.394	-166.57
270.623	70.84
270.851	-8.19
271.079	5.38
271.307	55.7
271.535	68.7
271.764	-13.89
271.992	194.33
272.22	-20.45
272.448	86.84
272.676	-15.79
272.904	-72.41
273.132	-40.49
273.36	20.38
273.588	78.8
273.816	-0.36
274.043	47.58
274.271	59.74
274.499	114.67
274.727	-314.81
274.955	83.66
275.182	36.59
275.41	-105.91
275.638	177.62
275.866	1250
276.093	37.43
276.321	-381.13
276.548	44.92
276.776	-93.9
277.003	132.35
277.231	-328.57
277.458	16.56
277.686	47.5
277.913	-171.87
278.141	21.81
278.368	20.91
278.595	57.03
278.823	-18.29
279.05	121.3
279.277	-33.43
279.505	-18.62
279.732	-151
279.959	1231.43
280.186	-57.99
280.413	-25.13
280.641	-219.08
280.868	36.14
281.095	119.33
281.322	-50
281.549	-60.44
281.776	-33.45
282.003	20.36
282.23	-63.45
282.457	64.3
282.683	10.17
282.91	6.88
283.137	40.23
283.364	422.73
283.591	-219.33
283.818	9700
284.044	-790.7
284.271	7.25
284.498	-30.69
284.724	7.22
284.951	-3.63
285.178	51.04
285.404	62.32
285.631	-46.7
285.857	-25.17
286.084	-172.64
286.31	-73.64
286.537	80.6
286.763	42
286.99	22.45
287.216	2622.22
287.442	-248.98
287.669	61.31
287.895	60.12
288.121	-185.61
288.347	-33.61
288.574	-0.27
288.8	76.69
289.026	-50
289.252	-103.63
289.478	-108.21
289.704	51.04
289.931	13.76
290.157	40.78
290.383	-5.74
290.609	50.47
290.835	-63.74
291.06	58.88
291.286	50.66
291.512	89.02
291.738	72.81
291.964	47.14
292.19	-66.39
292.416	-133.87
292.641	28.26
292.867	-26.04
293.093	860
293.319	63.66
293.544	4.17
293.77	138.71
293.995	150.69
294.221	-99.52
294.447	69.83
294.672	15.55
294.898	14.8
295.123	12.69
295.349	48.73
295.574	-81.71
295.799	-3.46
296.025	-23.45
296.25	-38.98
296.476	-206
296.701	-17.08
296.926	61.09
297.151	-45.08
297.377	42.86
297.602	-152.85
297.827	71.23
298.052	104.38
298.277	21.42
298.502	7.37
298.727	197.38
298.953	17.49
299.178	89.29
299.403	364.82
299.628	-21.46
299.852	-50
300.077	-2841.18
300.302	4.58
300.527	-102.79
300.752	31.53
300.977	288
301.202	3.28
301.426	-38.06
301.651	-15.95
301.876	-50
302.101	-114.74
302.325	63.52
302.55	140.07
302.775	-92.39
302.999	10.97
303.224	35.76
303.448	38.4
303.673	-591.67
303.897	34.97
304.122	-8.45
304.346	112.74
304.571	51.5
304.795	-284.35
305.019	3.99
305.244	48.96
305.468	881.08
305.692	332.12
305.917	191.74
306.141	-18.83
306.365	536.07
306.589	-53.1
306.813	36.54
307.038	33.57
307.262	-99.34
307.486	70.71
307.71	275
307.934	53.46
308.158	-497.11
308.382	-23.77
308.606	-155.88
308.83	25.04
309.054	-168.44
309.278	74.2
309.502	42.86
309.725	-68.79
309.949	88.35
310.173	48.37
310.397	43.5
310.62	76.12
310.844	-197.83
311.068	-131.25
311.292	25.03
311.515	32.96
311.739	-185.42
311.962	47.04
312.186	-18.61
312.41	-15.66
312.633	-11.44
312.857	76.33
313.08	-483.33
313.303	73.94
313.527	37.77
313.75	98.02
313.974	-31.84
314.197	-10.11
314.42	119.63
314.644	98.8
314.867	52.48
315.09	17.32
315.313	18.14
315.536	-0.24
315.76	-283.1
315.983	50.61
316.206	2
316.429	145
316.652	-203.11
316.875	28.47
317.098	63.95
317.321	-21.32
317.544	-155.62
317.767	71.73
317.99	77.6
318.213	-7
318.436	3.48
318.658	18.31
318.881	-116.1
319.104	-6.67
319.327	51.38
319.55	71.71
319.772	202.88
319.995	903.33
320.218	19.69
320.44	393.65
320.663	118.27
320.885	-40.1
321.108	18.42
321.331	25.05
321.553	106.33
321.776	600
321.998	37.1
322.22	30.72
322.443	-89.39
322.665	-24
322.888	8.56
323.11	52.75
323.332	47.83
323.555	13.73
323.777	56.43
323.999	-7.51
324.221	85.36
324.443	53.1
324.666	-32.82
324.888	60.74
325.11	-238.02
325.332	234.17
325.554	11.32
325.776	103
325.998	1386.05
326.22	-398.55
326.442	-55.51
326.664	57.03
326.886	-37.74
327.108	88.97
327.33	28
327.551	27.2
327.773	32.46
327.995	37.44
328.217	29.92
328.439	15.71
328.66	-41.12
328.882	138.02
329.104	-537.5
329.325	5.55
329.547	90.35
329.769	72.28
329.99	-33.49
330.212	280.33
330.433	94.04
330.655	9.83
330.876	41.03
331.098	514.75
331.319	-12.66
331.54	25.03
331.762	-0.48
331.983	-13.45
332.204	81.17
332.426	53.24
332.647	117.98
332.868	68.64
333.089	-144.14
333.311	77.51
333.532	-2.49
333.753	166.67
333.974	16.91
334.195	34.78
334.416	76.91
334.637	-84.95
334.858	50.47
335.079	-92.76
335.3	-34.99
335.521	-98.99
335.742	-247.83
335.963	76.53
336.184	140.65
336.405	48.33
336.626	35.14
336.846	-17.09
337.067	-34.52
337.288	22.02
337.509	-1566.67
337.729	17.98
337.95	-881.4
338.171	44.72
338.391	-51.42
338.612	59.2
338.833	1358.33
339.053	66.57
339.274	8.49
339.494	26.2
339.715	393.65
339.935	-8.86
340.156	32.63
340.376	32.06
340.596	8.55
340.817	525.71
341.037	28.16
341.257	46.4
341.478	27.19
341.698	48.91
341.918	-448.12
342.138	-30.15
342.359	-50
342.579	-80.21
342.799	18.94
343.019	27.15
343.239	15.42
343.459	159.32
343.679	37.94
343.899	20.62
344.119	-13.98
344.339	-66.46
344.559	10.99
344.779	32.73
344.999	4.36
345.219	20.98
345.439	-0.52
345.658	2188.89
345.878	410.42
346.098	2.4
346.318	32.32
346.537	186.36
346.757	30.88
346.977	29.27
347.196	18.29
347.416	22.65
347.636	-41.92
347.855	31.93
348.075	-10.61
348.294	153.13
348.514	118.52
348.733	-2.73
348.953	-440
349.172	-330.22
349.392	-51.71
349.611	49.43
349.83	13.59
350.05	-83.54
350.269	-75.78
350.488	23.7
350.707	-505.75
350.927	19.43
351.146	70.93
351.365	42.58
351.584	-123.86
351.803	41.95
352.023	40.63
352.242	66.63
352.461	51.11
352.68	185.66
352.899	11.18
353.118	-67.78
353.337	4.17
353.556	7.02
353.775	42.53
353.993	-92.89
354.212	77.61
354.431	-21.36
354.65	71.49
354.869	36.25
355.088	31.85
355.306	21.61
355.525	-8.41
355.744	-27.24
355.962	-70.97
356.181	-260.81
356.4	67.84
356.618	-55.28
356.837	68.78
357.055	-16.26
357.274	97.73
357.492	-206.48
357.711	-15.86
357.929	53.65
358.148	-370.67
358.366	121.05
358.585	8.43
358.803	-167.99
359.021	13.27
359.24	67.16
359.458	-122.74
359.676	106.98
359.894	-14.23
360.113	77.22
360.331	-21.03
360.549	1231.43
360.767	-13.58
360.985	308.96
361.203	-10.31
361.421	6.55
361.639	12.23
361.857	67.52
362.075	50.49
362.293	80
362.511	-99.37
362.729	-60.6
362.947	-78.54
363.165	55.63
363.383	-1.49
363.601	28
363.819	6.09
364.036	-66.55
364.254	134.77
364.472	1.68
364.689	105.63
364.907	10.97
365.125	55.63
365.342	-61.27
365.56	68.34
365.778	3.28
365.995	-50
366.213	131.72
366.43	36.83
366.648	-31.94
366.865	43.68
367.083	-23.45
367.3	-40.15
367.517	112.5
367.735	-10.41
367.952	-10.67
368.17	42.86
368.387	61.48
368.604	20.72
368.821	21.72
369.039	18.63
369.256	35.85
369.473	-5.83
369.69	-0.58
369.907	1900
370.124	2136.36
370.341	0.98
370.558	-27.22
370.776	1.03
370.993	6.57
371.21	3.1
371.426	-122.87
371.643	-6.26
371.86	40.67
372.077	17.24
372.294	26.28
372.511	-73.75
372.728	23.09
372.945	-13.68
373.161	8.03
373.378	18.42
373.595	26.39
373.811	104.2
374.028	18.99
374.245	11.74
374.461	56.96
374.678	18.24
374.895	-57.65
375.111	-63.77
375.328	64.05
375.544	1127.03
375.761	15.55
375.977	52.63
376.194	-21.81
376.41	-19.59
376.626	-54.36
376.843	48.19
377.059	22.22
377.275	8.92
377.492	42.29
377.708	-58.69
377.924	5.83
378.14	26.47
378.357	14.78
378.573	180.38
378.789	-4.87
379.005	28.26
379.221	-28.73
379.437	-2.86
379.653	-7.96
379.869	57.26
380.085	-67.32
380.301	56.93
380.517	22.22
380.733	23.24
380.949	-17.41
381.165	3.63
381.381	45.42
381.597	33.7
381.813	24.77
382.028	1.65
382.244	10.48
382.46	3.9
382.676	13.12
382.891	-58.29
383.107	8.82
383.323	27.59
383.538	-50.9
383.754	14.03
383.969	76.02
384.185	50.96
384.4	7.11
384.616	-67.15
384.831	68.68
385.047	-96.17
385.262	25.95
385.478	26.92
385.693	12.39
385.909	26.76
386.124	-17.4
386.339	12.55
386.554	-13.66
386.77	-22.98
386.985	-3.98
387.2	-62.96
387.415	-35.51
387.631	44.37
387.846	0.75
388.061	20.22
388.276	-21.32
388.491	-18.47
388.706	-37.04
388.921	5.51
389.136	-20.26
389.351	70.21
389.566	-32.47
389.781	1.24
389.996	41.45
390.211	21.87
390.426	29.96
390.641	9.19
390.855	-52.93
391.07	37.37
391.285	-13.09
391.5	-18.72
391.714	21.98
391.929	-10.9
392.144	22.35
392.358	5.71
392.573	15.93
392.788	-6.34
393.002	12.33
393.217	28.06
393.431	-19.67
393.646	30.08
393.86	1.74
394.075	3.74
394.289	-0.08
394.504	3.1
394.718	5.31
394.933	-14.67
395.147	5.31
395.361	1.01
395.576	2.69
395.79	-20.51
396.004	-4.74
396.218	-2.89
396.432	8.74
396.647	7.84
396.861	7.22
397.075	12.12
397.289	9.3
397.503	-1.96
397.717	-5.54
397.931	-1.63
398.145	-18.98
398.359	-4.35
398.573	-0.5
398.787	9.85
399.001	5.55
399.215	20.13
399.429	-13.66
399.643	-1.03
399.857	0.69
400.07	6.17
400.284	-1.21
400.498	-9.76
400.712	4.16
400.925	5.28
401.139	-2.92
401.353	-1.46
401.566	4.35
401.78	-0.05
401.994	-0.34
402.207	11.12
402.421	-2.38
402.634	-12.09
402.848	5.45
403.061	-9.43
403.275	8.46
403.488	5.22
403.702	-2.13
403.915	-0.25
404.128	-2.52
404.342	-4.33
404.555	0.4
404.768	6.08
404.982	-1.72
405.195	0.38
405.408	6.7
405.621	3.55
405.835	6.73
406.048	-3.85
406.261	6.33
406.474	11.37
406.687	-0.74
406.9	-1.47
407.113	5.41
407.326	-0.02
407.539	-4.26
407.752	-0.46
407.965	2.71
408.178	6.88
408.391	12.28
408.604	4.94
408.817	-1.35
409.029	-0.4
409.242	0.94
409.455	-1.59
409.668	-1.32
409.881	2.9
410.093	4.44
410.306	4.35
410.519	0.45
410.731	-1.73
410.944	1.24
411.157	2.83
411.369	-1.77
411.582	4.05
411.794	-0.23
412.007	-2.92
412.219	5.78
412.432	1.27
412.644	0.18
412.857	1.66
413.069	6.22
413.281	-0.01
413.494	2.19
413.706	7.58
413.918	4.42
414.131	2.67
414.343	0.69
414.555	4.25
414.767	1.12
414.979	2.93
415.192	-1.18
415.404	0.54
415.616	-0.35
415.828	2.5
416.04	2.3
416.252	3.73
416.464	-0.49
416.676	3.04
416.888	2.39
417.1	-1.21
417.312	3.44
417.524	3.23
417.736	-0.39
417.948	-0.09
418.159	3.11
418.371	4.45
418.583	4.67
418.795	2.31
419.007	4.43
419.218	1.06
419.43	2.38
419.642	-1.65
419.853	-0.99
420.065	2.84
420.276	4.01
420.488	3.26
420.7	1.19
420.911	4.96
421.123	2.05
421.334	5.27
421.546	1.35
421.757	2.05
421.969	0.81
422.18	2.7
422.391	4.05
422.603	0.9
422.814	4.08
423.025	1.4
423.237	1.41
423.448	3.98
423.659	8.4
423.87	0.43
424.082	2.77
424.293	1.35
424.504	4.36
424.715	4.11
424.926	1.95
425.137	-1.18
425.348	3.42
425.559	4.99
425.77	4.52
425.981	2.08
426.192	2.71
426.403	0.39
426.614	0.12
426.825	5.25
427.036	4.96
427.247	2.55
427.458	6.17
427.668	2.08
427.879	3.88
428.09	4.13
428.301	1.95
428.511	0.72
428.722	3.38
428.933	1.72
429.143	1.52
429.354	3.64
429.565	3.72
429.775	4.67
429.986	2.29
430.196	3.32
430.407	1.96
430.617	-0.07
430.828	0.7
431.038	2.46
431.249	0.76
431.459	2.61
431.669	4.71
431.88	6.39
432.09	5.66
432.3	4.5
432.511	3.73
432.721	4.29
432.931	4.34
433.141	5.13
433.351	2.47
433.562	5.95
433.772	5.53
433.982	6.58
434.192	6.74
434.402	5.65
434.612	5.18
434.822	2.95
435.032	5.69
435.242	5.09
435.452	4.54
435.662	2.49
435.872	6.02
436.082	5.57
436.292	5.6
436.502	8.49
436.711	6.82
436.921	6.56
437.131	6.4
437.341	5.24
437.551	8.49
437.76	6.93
437.97	7.07
438.18	5.12
438.389	8.37
438.599	5.5
438.808	6.64
439.018	5.06
439.228	7.58
439.437	6.51
439.647	7.05
439.856	6.09
440.066	10.65
440.275	9.27
440.484	11.48
440.694	8.83
440.903	10.62
441.113	7.69
441.322	10.22
441.531	8.28
441.741	9.81
441.95	10.97
442.159	11.14
442.368	8.93
442.577	10.81
442.787	12.27
442.996	11.72
443.205	9.53
443.414	13.39
443.623	12.27
443.832	11.28
444.041	14.6
444.25	16.57
444.459	13.78
444.668	10.64
444.877	10.76
445.086	14.41
445.295	17.51
445.504	14.1
445.713	14.44
445.922	12.91
446.13	15.09
446.339	14.83
446.548	14.79
446.757	16.23
446.965	12.45
447.174	15.63
447.383	15.09
447.591	12.75
447.8	14.79
448.009	14.26
448.217	15.36
448.426	16.71
448.634	17.45
448.843	15.15
449.051	15.17
449.26	16.98
449.468	20.81
449.677	19.29
449.885	17.65
450.093	16.79
450.302	15.42
450.51	18.23
450.719	15.86
450.927	15.08
451.135	19.37
451.343	15.47
451.552	18.58
451.76	18.42
451.968	17
452.176	16.63
452.384	17.26
452.592	15.28
452.8	14.32
453.009	16.8
453.217	16
453.425	13.53
453.633	14.28
453.841	12.88
454.049	14.39
454.257	12.86
454.464	15.9
454.672	13.95
454.88	14.93
455.088	11.81
455.296	12.11
455.504	14.74
455.711	13.66
455.919	11.66
456.127	14.77
456.335	14.2
456.542	11.93
456.75	11.57
456.958	11.34
457.165	11.96
457.373	12.37
457.581	11.61
457.788	7.8
457.996	7.5
458.203	11.05
458.411	11.6
458.618	7.56
458.826	8.71
459.033	12.05
459.24	12.3
459.448	9.29
459.655	10.88
459.863	8.45
460.07	9.22
460.277	6.64
460.484	8.82
460.692	10.31
460.899	6.36
461.106	8.56
461.313	7.88
461.52	8.29
461.728	8.12
461.935	7.87
462.142	5.21
462.349	10.34
462.556	7.83
462.763	9.36
462.97	4.06
463.177	8.32
463.384	5.64
463.591	6.03
463.798	7.79
464.005	4.91
464.212	6.46
464.418	6.34
464.625	5.83
464.832	7.34
465.039	4.03
465.246	4.67
465.452	5.73
465.659	8.29
465.866	5.81
466.072	4.46
466.279	5.65
