Data from y0_Transmission_15-19-09-750.txt Node
Date: Thu May 02 15:19:09 EDT 2019
User: dh1006
Spectrometer: USB4E01358
Autoset integration time: false
Trigger mode: 4
Integration Time (sec): 8.000000E-2
Scans to average: 1
Electric dark correction enabled: true
Nonlinearity correction enabled: false
Boxcar width: 0
Stray light correction enabled: false
XAxis mode: Wavelengths
Stop averaging: false
Number of Pixels in Spectrum: 3648
>>>>>Begin Spectral Data<<<<<
176.727	-746.67
176.966	-746.67
177.205	-746.67
177.444	198.88
177.683	88.44
177.922	-25.92
178.161	310.19
178.4	-75
178.638	2525
178.877	353.62
179.116	338.95
179.355	1490.91
179.593	-1.2
179.832	321.47
180.071	139.77
180.309	4366.67
180.548	135.56
180.786	130.53
181.025	-2675
181.263	-122.07
181.502	86.13
181.74	-0.55
181.979	-16.19
182.217	-106.94
182.456	93.54
182.694	101.9
182.932	20.95
183.17	51.45
183.409	-117.01
183.647	115.03
183.885	366.32
184.123	291.08
184.361	39.57
184.6	9.14
184.838	-544.44
185.076	-167.86
185.314	-0.65
185.552	62.13
185.79	-73.69
186.028	68.13
186.266	119.29
186.503	135.96
186.741	98.28
186.979	20.3
187.217	-2675
187.455	26.05
187.693	91.03
187.93	23.22
188.168	1550
188.406	55.9
188.643	-19.01
188.881	-588.41
189.119	36.08
189.356	-797.22
189.594	46.73
189.831	51.24
190.069	45.85
190.306	-28.57
190.543	57.41
190.781	14.34
191.018	26.99
191.256	90.16
191.493	-104.14
191.73	25.63
191.967	-353.57
192.205	-53.8
192.442	-26.29
192.679	-10800
192.916	144.37
193.153	150.63
193.39	-260.71
193.628	608.48
193.865	-96.56
194.102	322.22
194.339	20.2
194.576	-52.71
194.813	-8.41
195.049	201.25
195.286	160.28
195.523	257.77
195.76	-16.08
195.997	19.35
196.234	48.64
196.47	-161.15
196.707	-302.99
196.944	18.43
197.18	58.47
197.417	77.34
197.654	26.4
197.89	7.21
198.127	-67.71
198.363	451.72
198.6	15.3
198.836	-93.78
199.073	-40.86
199.309	10.53
199.546	42.12
199.782	-87.26
200.018	-833.33
200.255	32.68
200.491	-974.42
200.727	25.73
200.963	39.59
201.199	-68.53
201.436	447.19
201.672	-37.48
201.908	108.01
202.144	-7.64
202.38	78.95
202.616	55.12
202.852	269.31
203.088	9.11
203.324	-222.11
203.56	-637.8
203.796	-103.96
204.032	98.97
204.268	439.58
204.503	260.16
204.739	246.24
204.975	-29.48
205.211	-41.78
205.446	23.51
205.682	12.46
205.918	-762.79
206.153	4.24
206.389	83.89
206.625	188.29
206.86	69.77
207.096	-50.63
207.331	94.63
207.567	-36.56
207.802	51.02
208.037	-43.91
208.273	-0.64
208.508	-291.67
208.744	-31.29
208.979	35.92
209.214	-7875
209.449	-52.71
209.685	-55.04
209.92	43.35
210.155	-115.97
210.39	-30.14
210.625	-376.79
210.86	-68.53
211.095	167.16
211.33	1.28
211.565	-664.81
211.8	78.16
212.035	-56.2
212.27	57.99
212.505	319.15
212.74	22.34
212.975	2613.64
213.21	149.42
213.444	-24.62
213.679	34.3
213.914	41.6
214.149	-65.19
214.383	37.67
214.618	33.33
214.853	-6.14
215.087	-99.46
215.322	26.75
215.556	-73.37
215.791	23.26
216.025	83.47
216.26	-155.02
216.494	372.97
216.729	-207.41
216.963	-30.14
217.197	11.01
217.432	2.71
217.666	-209.76
217.9	-0.27
218.135	16.76
218.369	-111.11
218.603	152.69
218.837	34.63
219.071	173.83
219.306	22.56
219.54	114.58
219.774	8.62
220.008	55.39
220.242	-314.05
220.476	-935.29
220.71	59.96
220.944	59.35
221.178	-98.78
221.411	-45.86
221.645	87.93
221.879	81.19
222.113	-1136.67
222.347	98.03
222.58	-28.57
222.814	-0.36
223.048	430.56
223.281	-11.02
223.515	221.24
223.749	-318.75
223.982	-30.14
224.216	783
224.449	130.26
224.683	-99.75
224.916	274.07
225.15	71.37
225.383	224
225.617	-43.95
225.85	32.75
226.083	346.09
226.317	56.18
226.55	11.56
226.783	478.7
227.016	4.87
227.25	45.71
227.483	-725
227.716	-89.63
227.949	40.13
228.182	-25.63
228.415	-0.95
228.648	-91.25
228.881	34.23
229.114	-55.77
229.347	94.75
229.58	770
229.813	21.45
230.046	53.03
230.279	-43.65
230.512	-8.58
230.745	-37.49
230.977	60.42
231.21	40.44
231.443	50.35
231.675	217.23
231.908	-1623.53
232.141	47.13
232.373	-222.11
232.606	-267.35
232.839	12.45
233.071	-128.44
233.304	-207.95
233.536	311.58
233.769	217.05
234.001	82.06
234.233	-147.22
234.466	-24.8
234.698	320.1
234.93	-171.38
235.163	-8.22
235.395	-1125.58
235.627	33.33
235.86	-362.32
236.092	-13.96
236.324	-0.46
236.556	40.05
236.788	64.66
237.02	21.13
237.252	23.26
237.484	70.97
237.716	-530
237.948	110.56
238.18	-238.84
238.412	83.42
238.644	285.55
238.876	-75
239.108	19.62
239.34	431.15
239.571	37.13
239.803	-0.65
240.035	397.63
240.267	92.4
240.498	-688.89
240.73	1027.87
240.962	37.69
241.193	-62.09
241.425	58.35
241.656	207.91
241.888	45.11
242.119	50.96
242.351	-97.67
242.582	182.55
242.814	-249.59
243.045	24.31
243.277	-2.24
243.508	654.05
243.739	-16.76
243.971	88.54
244.202	-2.27
244.433	-31.79
244.664	-4.11
244.896	114.24
245.127	7.65
245.358	-1235.71
245.589	231.21
245.82	281.84
246.051	13.9
246.282	29.26
246.513	111.24
246.744	35.65
246.975	-495.12
247.206	59.08
247.437	-180.28
247.668	177.78
247.899	61.03
248.129	14.37
248.36	-69.75
248.591	-50.22
248.822	26.49
249.052	-11.94
249.283	-0.4
249.514	-8.28
249.744	-3.3
249.975	138.92
250.206	-24.67
250.436	-99.7
250.667	432.37
250.897	44.95
251.128	-4.47
251.358	548.65
251.589	195.83
251.819	73.57
252.049	-15.16
252.28	-17.09
252.51	14.31
252.74	-91.09
252.971	1875
253.201	82.75
253.431	5.01
253.661	-68.87
253.891	46.87
254.121	1.13
254.352	-53.33
254.582	825.71
254.812	-68.53
255.042	-164.82
255.272	16.27
255.502	-60.87
255.732	2055.56
255.962	495.08
256.192	19.87
256.421	3.3
256.651	-79.37
256.881	-180.44
257.111	112.58
257.341	59.35
257.57	148.47
257.8	-26.3
258.03	13.46
258.259	50.21
258.489	28.53
258.719	-26.03
258.948	-57.99
259.178	134.41
259.407	60.18
259.637	-40.95
259.866	250
260.096	-217.09
260.325	404.05
260.555	58.82
260.784	54.01
261.013	-608.93
261.243	115.64
261.472	812.16
261.701	73.78
261.931	-139.02
262.16	83.72
262.389	-53.55
262.618	-124.24
262.847	85.54
263.076	-50.21
263.305	-65.62
263.535	-25.94
263.764	7.42
263.993	69.37
264.222	34.34
264.451	-6.06
264.679	40.06
264.908	-22.3
265.137	0.88
265.366	-19.11
265.595	14.33
265.824	59.17
266.053	29.04
266.281	-257.23
266.51	-23.86
266.739	126.52
266.967	37.76
267.196	1875
267.425	25.63
267.653	-82.44
267.882	-2.35
268.11	291.27
268.339	-22.82
268.567	-228.3
268.796	-77.73
269.024	-423.21
269.253	-150.92
269.481	22.29
269.709	8.91
269.938	-145.32
270.166	48.13
270.394	109.73
270.623	28.07
270.851	2.92
271.079	80.94
271.307	88.41
271.535	29.57
271.764	-25.35
271.992	139.36
272.22	-0.36
272.448	-61.7
272.676	-76.9
272.904	30.34
273.132	5.85
273.36	-23.25
273.588	37.33
273.816	-12.36
274.043	-72.75
274.271	106.49
274.499	-59.11
274.727	-556.48
274.955	-37.46
275.182	-28.24
275.41	-281.18
275.638	219.49
275.866	1441.67
276.093	52.34
276.321	-160.85
276.548	-23.92
276.776	53.16
277.003	-9.13
277.231	788.57
277.458	-57.3
277.686	-58.75
277.913	95.62
278.141	38.24
278.368	-59.64
278.595	25.5
278.823	-621.95
279.05	13
279.277	3.26
279.505	66.21
279.732	-141.04
279.959	1308.57
280.186	31.2
280.413	-45.15
280.641	156.07
280.868	28.11
281.095	124.37
281.322	-1223.33
281.549	-47.59
281.776	44.36
282.003	17.49
282.23	-113.1
282.457	91.34
282.683	59.09
282.91	-172.5
283.137	-11.47
283.364	2672.73
283.591	-99.58
283.818	-4300
284.044	-1155.81
284.271	101.81
284.498	37.62
284.724	38.96
284.951	6.36
285.178	40.37
285.404	-29.89
285.631	200.51
285.857	-61.46
286.084	29.25
286.31	-69.09
286.537	-33.72
286.763	37.35
286.99	-19.11
287.216	3933.33
287.442	-108.16
287.669	-2.45
287.895	30.73
288.121	235.97
288.347	-110.5
288.574	-5.74
288.8	-19.92
289.026	53.03
289.252	41.91
289.478	-157.46
289.704	-4.87
289.931	-6.58
290.157	4.28
290.383	-26.6
290.609	33.33
290.835	14.31
291.06	-76.65
291.286	-79.27
291.512	110.98
291.738	-28.57
291.964	51.76
292.19	-252.52
292.416	-267.2
292.641	8.85
292.867	-32.68
293.093	-177.14
293.319	22.68
293.544	67.8
293.77	75.27
293.995	241.01
294.221	24.05
294.447	72.07
294.672	-50.42
294.898	51.52
295.123	-37.06
295.349	7.28
295.574	-130.49
295.799	17.32
296.025	-104.44
296.25	-39.19
296.476	172
296.701	22.61
296.926	1.82
297.151	-183.33
297.377	1160
297.602	-95.57
297.827	-21.31
298.052	-164.38
298.277	91.79
298.502	-11.64
298.727	111.81
298.953	68.85
299.178	39.37
299.403	5.03
299.628	7.97
299.852	-137.82
300.077	-3229.41
300.302	6.87
300.527	-4.06
300.752	102.37
300.977	1082
301.202	218.03
301.426	-62.2
301.651	-140
301.876	-400
302.101	-130.68
302.325	54.07
302.55	125.63
302.775	-163.32
302.999	63.35
303.224	-47.92
303.448	-7.77
303.673	-327.78
303.897	70.12
304.122	-43.51
304.346	79.46
304.571	-0.5
304.795	-205.44
305.019	-9.14
305.244	56.62
305.468	-66.22
305.692	175.15
305.917	-410.74
306.141	-99.82
306.365	836.07
306.589	-31.67
306.813	5.1
307.038	-133.81
307.262	-61.06
307.486	2.38
307.71	11300
307.934	59.66
308.158	-136.99
308.382	-47.31
308.606	-48.87
308.83	-19.01
309.054	-99.56
309.278	26.43
309.502	54.34
309.725	133.53
309.949	41.16
310.173	32.09
310.397	17.75
310.62	-79.85
310.844	36.46
311.068	-172.5
311.292	-7.13
311.515	-13.32
311.739	1495.83
311.962	-110.7
312.186	21.08
312.41	-51.47
312.633	10.38
312.857	37.93
313.08	-436.11
313.303	-17.16
313.527	-26.03
313.75	-18.15
313.974	-41.71
314.197	158.48
314.42	-6.7
314.644	132.53
314.867	-7.66
315.09	3.9
315.313	53.24
315.536	18.3
315.76	-14.48
315.983	-80.59
316.206	-14.73
316.429	71.25
316.652	-411.56
316.875	17.78
317.098	25.31
317.321	11.03
317.544	-391.88
317.767	40.99
317.99	-45.73
318.213	23.22
318.436	-17.41
318.658	-21.18
318.881	-108.05
319.104	36.43
319.327	53.21
319.55	138.65
319.772	117
319.995	-140
320.218	32.39
320.44	476.98
320.663	61.93
320.885	-109.64
321.108	19.86
321.331	-26.03
321.553	-210.76
321.776	-4950
321.998	31.99
322.22	-99.78
322.443	87.5
322.665	44.89
322.888	31.87
323.11	66.43
323.332	-28.57
323.555	154.41
323.777	-137.72
323.999	-51.04
324.221	15.46
324.443	39.31
324.666	-81.78
324.888	31.73
325.11	-485.95
325.332	-34.17
325.554	-277.36
325.776	-37.48
325.998	597.67
326.22	-4.35
326.442	18.64
326.664	67.27
326.886	-50.47
327.108	88.62
327.33	-232.44
327.551	-33.91
327.773	-43.43
327.995	-41.48
328.217	1.37
328.439	52.87
328.66	19.13
328.882	212.4
329.104	-933.93
329.325	24.89
329.547	50.15
329.769	-0.99
329.99	83.37
330.212	1283.61
330.433	33.33
330.655	-0.47
330.876	-64.62
331.098	985.25
331.319	19.04
331.54	17.66
331.762	-10
331.983	85.54
332.204	-85.2
332.426	-19.56
332.647	359.55
332.868	-12.64
333.089	-41.38
333.311	40.07
333.532	83.72
333.753	-2653.33
333.974	39.71
334.195	-82.07
334.416	43.63
334.637	26.34
334.858	93.85
335.079	190.13
335.3	-7.46
335.521	-197.49
335.742	-531.88
335.963	4.39
336.184	41.34
336.405	36.74
336.626	22.6
336.846	19.62
337.067	132.38
337.288	37.64
337.509	-1136.67
337.729	11.22
337.95	-1004.65
338.171	-125.63
338.391	24.84
338.612	17.49
338.833	1225
339.053	-40.43
339.274	-7.13
339.494	-25.24
339.715	-7.94
339.935	-87.34
340.156	70.97
340.376	-13.46
340.596	53.35
340.817	1531.43
341.037	-103.8
341.257	32.42
341.478	28.52
341.698	-46.74
341.918	-383.75
342.138	-17.94
342.359	-120.43
342.579	-33.58
342.799	-20.83
343.019	-30.08
343.239	23.73
343.459	2.12
343.679	70.29
343.899	7.65
344.119	54.49
344.339	-181.96
344.559	44.57
344.779	17.58
344.999	-32.51
345.219	28.35
345.439	-82.68
345.658	1477.78
345.878	656.25
346.098	-68.63
346.318	-3.83
346.537	1077.27
346.757	109.22
346.977	37.56
347.196	21.53
347.416	-73.09
347.636	8.7
347.855	53.36
348.075	-119.32
348.294	-115.63
348.514	-171.3
348.733	-5.27
348.953	-331.58
349.172	-111.11
349.392	-28.08
349.611	40.08
349.83	34.51
350.05	-128.5
350.269	-9.63
350.488	34.22
350.707	-205.75
350.927	47.31
351.146	12.46
351.365	-41.38
351.584	-237.5
351.803	-0.49
352.023	15.14
352.242	66.53
352.461	-36
352.68	-68.53
352.899	5.29
353.118	42.55
353.337	121.97
353.556	-130.12
353.775	-27.6
353.993	-20.56
354.212	66.56
354.431	-0.29
354.65	64.69
354.869	-7.34
355.088	14.07
355.306	51.69
355.525	-39.52
355.744	-91.44
355.962	-8.6
356.181	390.54
356.4	-19.88
356.618	-32.2
356.837	-112.94
357.055	-11.07
357.274	86.72
357.492	-363.89
357.711	48.03
357.929	68.6
358.148	-388.44
358.366	86.55
358.585	140.45
358.803	-13.86
359.021	646.9
359.24	-56.54
359.458	-198.19
359.676	-24.25
359.894	-11.24
360.113	65.14
360.331	-18.17
360.549	2162.86
360.767	1.7
360.985	-361.19
361.203	-40.27
361.421	21.02
361.639	10.74
361.857	46.17
362.075	-28.57
362.293	32.06
362.511	-75
362.729	-135.05
362.947	-49.11
363.165	-75
363.383	-46.87
363.601	49.58
363.819	-89.85
364.036	3.9
364.254	38.83
364.472	-72.02
364.689	-52.11
364.907	20.2
365.125	95.62
365.342	186.13
365.56	54.49
365.778	-50.14
365.995	-58.75
366.213	19.35
366.43	19.27
366.648	-95.31
366.865	-10
367.083	89.52
367.3	-217.8
367.517	-35.61
367.735	-10.66
367.952	-27.39
368.17	-12.93
368.387	4.75
368.604	21.85
368.821	106.55
369.039	27.95
369.256	-11.88
369.473	68.39
369.69	48.54
369.907	250
370.124	1550
370.341	154.41
370.558	4.74
370.776	-16.07
370.993	-0.53
371.21	-11.83
371.426	28.48
371.643	4.18
371.86	11.2
372.077	-95.17
372.294	-0.38
372.511	1.66
372.728	17.09
372.945	14.85
373.161	-6.13
373.378	33.33
373.595	-91.75
373.811	63.78
374.028	28.49
374.245	47.63
374.461	-54.43
374.678	32.69
374.895	-8.09
375.111	-33.69
375.328	29.64
375.544	1005.41
375.761	81.77
375.977	28.53
376.194	46.05
376.41	-65.5
376.626	-21.34
376.843	-25.21
377.059	57.27
377.275	43.77
377.492	32.89
377.708	-39.85
377.924	13.73
378.14	-128.53
378.357	5.98
378.573	-13.29
378.789	36.07
379.005	47.56
379.221	-147.09
379.437	-107.25
379.653	8.76
379.869	38.41
380.085	-37.48
380.301	5.34
380.517	4.44
380.733	19.09
380.949	18.47
381.165	-18.17
381.381	-23.21
381.597	45.21
381.813	17.71
382.028	-35.53
382.244	10.37
382.46	-34.31
382.676	-16.87
382.891	-73.34
383.107	-10.9
383.323	14.3
383.538	-52.85
383.754	4.88
383.969	41.07
384.185	25.96
384.4	50.64
384.616	-74.14
384.831	37.84
385.047	-41.26
385.262	30.54
385.478	6.25
385.693	-13
385.909	37.65
386.124	-6.93
386.339	14.17
386.554	-52.16
386.77	-0.33
386.985	-11.73
387.2	-82.56
387.415	82.32
387.631	79.28
387.846	-9.91
388.061	-24.28
388.276	-40.59
388.491	12.99
388.706	-50.79
388.921	-9.03
389.136	12.05
389.351	43.42
389.566	-5.93
389.781	2.59
389.996	40.64
390.211	22.6
390.426	-4.14
390.641	-8.55
390.855	-20.75
391.07	11.68
391.285	-3.58
391.5	-25.76
391.714	23.36
391.929	8.75
392.144	-3.49
392.358	-8.18
392.573	-1.04
392.788	-21.64
393.002	9.59
393.217	6.68
393.431	-1.33
393.646	20.15
393.86	-27.08
394.075	-5.91
394.289	-28.57
394.504	-5.96
394.718	-4.03
394.933	-14.71
395.147	-0.6
395.361	-6.13
395.576	2.19
395.79	-6.37
396.004	3.3
396.218	0.99
396.432	11.46
396.647	21.54
396.861	6.76
397.075	16.3
397.289	10.44
397.503	6.01
397.717	-3.47
397.931	4.23
398.145	-14.65
398.359	-3.21
398.573	-7.48
398.787	4.87
399.001	4.48
399.215	-3.44
399.429	-13.69
399.643	-0.4
399.857	-13.98
400.07	4.07
400.284	8.65
400.498	7.1
400.712	5.81
400.925	-2.89
401.139	-6.53
401.353	1.92
401.566	-1.35
401.78	3.34
401.994	-4.48
402.207	-1.75
402.421	-0.58
402.634	-2.12
402.848	6.15
403.061	-0.78
403.275	4.74
403.488	0.16
403.702	0.64
403.915	5.18
404.128	0.16
404.342	-4.6
404.555	-3.96
404.768	7.54
404.982	1.83
405.195	-11.71
405.408	-1.97
405.621	-0.22
405.835	2.56
406.048	-1.76
406.261	6.85
406.474	7.12
406.687	-9.82
406.9	0.44
407.113	1.24
407.326	1.06
407.539	-0.64
407.752	2.75
407.965	2.12
408.178	1.94
408.391	6.54
408.604	2.94
408.817	1.44
409.029	3.5
409.242	1.89
409.455	1.01
409.668	2.17
409.881	-0.49
410.093	-1.52
410.306	1.35
410.519	-0.97
410.731	-0.64
410.944	5.02
411.157	4.46
411.369	-0.24
411.582	1.54
411.794	-0.55
412.007	-1.03
412.219	3.98
412.432	6.98
412.644	0.37
412.857	0.86
413.069	1.81
413.281	2.69
413.494	6.41
413.706	1.99
413.918	3.63
414.131	1.86
414.343	0.78
414.555	2.38
414.767	0.76
414.979	4.04
415.192	1.99
415.404	3
415.616	0.23
415.828	1.91
416.04	0.31
416.252	6.04
416.464	-2.01
416.676	3.52
416.888	4.16
417.1	0.92
417.312	3.82
417.524	2.27
417.736	2.43
417.948	-0.57
418.159	1.4
418.371	1.84
418.583	1.11
418.795	1.03
419.007	3.79
419.218	1.98
419.43	2.67
419.642	0.13
419.853	-0.86
420.065	2.76
420.276	0.93
420.488	2.41
420.7	2.86
420.911	3.63
421.123	0.56
421.334	1.44
421.546	3.29
421.757	0.45
421.969	1.01
422.18	0.87
422.391	1.38
422.603	-0.4
422.814	4.2
423.025	1.01
423.237	4.17
423.448	5.91
423.659	3.27
423.87	-1.27
424.082	1.8
424.293	1.73
424.504	3.81
424.715	5.23
424.926	1.83
425.137	2.02
425.348	4.62
425.559	3.26
425.77	5.62
425.981	3.63
426.192	4.23
426.403	0.74
426.614	0.36
426.825	2.4
427.036	4.03
427.247	2.79
427.458	5.77
427.668	1.54
427.879	3.82
428.09	2.02
428.301	1.94
428.511	1.86
428.722	0.83
428.933	2.91
429.143	1.99
429.354	3.52
429.565	2.05
429.775	1.85
429.986	4.53
430.196	5.35
430.407	1.48
430.617	0.53
430.828	2.78
431.038	3.9
431.249	3.01
431.459	4.12
431.669	5.18
431.88	5.23
432.09	4.9
432.3	4.38
432.511	4.29
432.721	6.81
432.931	4.83
433.141	1.8
433.351	4.6
433.562	3.27
433.772	4.1
433.982	6.23
434.192	6.73
434.402	3.14
434.612	3.06
434.822	5.02
435.032	3.88
435.242	6.76
435.452	2.77
435.662	5.56
435.872	5.5
436.082	4.59
436.292	6.9
436.502	6.39
436.711	1.55
436.921	5.57
437.131	5.59
437.341	1.78
437.551	7.99
437.76	9.8
437.97	5.58
438.18	5.81
438.389	6.65
438.599	6.68
438.808	7.24
439.018	7.77
439.228	9.1
439.437	6.93
439.647	7.3
439.856	7.88
440.066	6.7
440.275	10.64
440.484	10.71
440.694	7.75
440.903	12.37
441.113	10.23
441.322	10.86
441.531	7.96
441.741	9.4
441.95	11.27
442.159	9.89
442.368	10.59
442.577	12.22
442.787	10.1
442.996	13.08
443.205	9.59
443.414	13.8
443.623	13.21
443.832	10.4
444.041	14.35
444.25	15.23
444.459	12.87
444.668	13.84
444.877	14.03
445.086	12.99
445.295	15.75
445.504	13.32
445.713	16.96
445.922	14.06
446.13	14.38
446.339	15.7
446.548	14.5
446.757	14.21
446.965	12.52
447.174	14.19
447.383	15.09
447.591	12.01
447.8	15.58
448.009	15.22
448.217	14.91
448.426	15.45
448.634	18.77
448.843	15.92
449.051	16.9
449.26	19.48
449.468	17.23
449.677	20.64
449.885	17.5
450.093	16.66
450.302	16.8
450.51	17.29
450.719	15.99
450.927	14.28
451.135	19.04
451.343	14.43
451.552	19.99
451.76	16.37
451.968	17.63
452.176	15.42
452.384	16.04
452.592	17.47
452.8	18.03
453.009	13.5
453.217	15.69
453.425	12.58
453.633	16.8
453.841	15.34
454.049	12.77
454.257	13.12
454.464	14.56
454.672	12.92
454.88	15.13
455.088	11.28
455.296	13.46
455.504	11.52
455.711	16.01
455.919	12.78
456.127	12.23
456.335	12.07
456.542	12.25
456.75	10.58
456.958	11.27
457.165	11.13
457.373	10.51
457.581	9.23
457.788	9.84
457.996	9.29
458.203	10.18
458.411	11.28
458.618	8.86
458.826	6.84
459.033	9.23
459.24	9.36
459.448	9.94
459.655	8.87
459.863	9.65
460.07	9.51
460.277	6.7
460.484	7
460.692	10.44
460.899	7.7
461.106	6.46
461.313	8.29
461.52	7.71
461.728	9.06
461.935	8.58
462.142	7.6
462.349	8.99
462.556	7.44
462.763	7.28
462.97	3.44
463.177	10.26
463.384	7.08
463.591	4.87
463.798	7.85
464.005	6.26
464.212	6.88
464.418	7.08
464.625	6.12
464.832	5.39
