Data from x0_Transmission_15-15-17-294.txt Node
Date: Thu May 02 15:15:17 EDT 2019
User: dh1006
Spectrometer: USB4E01358
Autoset integration time: false
Trigger mode: 4
Integration Time (sec): 8.000000E-2
Scans to average: 1
Electric dark correction enabled: true
Nonlinearity correction enabled: false
Boxcar width: 0
Stray light correction enabled: false
XAxis mode: Wavelengths
Stop averaging: false
Number of Pixels in Spectrum: 3648
>>>>>Begin Spectral Data<<<<<
176.727	303.33
176.966	303.33
177.205	303.33
177.444	233.71
177.683	-45.09
177.922	47.76
178.161	337.04
178.4	-247
178.638	5525
178.877	263.77
179.116	273.68
179.355	3013.64
179.593	-62.15
179.832	-13.61
180.071	114.04
180.309	-288.89
180.548	89.26
180.786	56.7
181.025	-5200
181.263	-44.83
181.502	10.92
181.74	101.64
181.979	43.33
182.217	-548.55
182.456	12.72
182.694	28.8
182.932	21.67
183.17	4.73
183.409	-256.46
183.647	81.69
183.885	-410.53
184.123	270.63
184.361	467.63
184.6	-65.99
184.838	2455.56
185.076	-46.43
185.314	-67.97
185.552	45.35
185.79	-44.38
186.028	60.35
186.266	-49.46
186.503	-76.02
186.741	22.36
186.979	84.71
187.217	-17875
187.455	-109.24
187.693	-67.12
187.93	47.21
188.168	1191.67
188.406	-74.48
188.643	-4.62
188.881	-527.54
189.119	41.14
189.356	-421.3
189.594	28.36
189.831	96.69
190.069	-84.48
190.306	43.47
190.543	9.63
190.781	41.43
191.018	27.48
191.256	532.79
191.493	-152.41
191.73	-59.39
191.967	-417.86
192.205	-120.11
192.442	-67.08
192.679	-9425
192.916	-284.38
193.153	87.97
193.39	-835.71
193.628	362.42
193.865	-92.63
194.102	103.17
194.339	3.75
194.576	75.09
194.813	51.68
195.049	-48.75
195.286	-7.32
195.523	150.2
195.76	-7.6
195.997	-55.91
196.234	-70.65
196.47	-71.65
196.707	-184.33
196.944	-38.33
197.18	58.82
197.417	20.31
197.654	5.94
197.89	-15.29
198.127	-49.55
198.363	328.74
198.6	-10.47
198.836	-23.11
199.073	53.96
199.309	28.69
199.546	-65.88
199.782	-122.64
200.018	-1473.33
200.255	126.69
200.491	-1723.26
200.727	15.2
200.963	-18.76
201.199	-62.15
201.436	314.04
201.672	-77.96
201.908	154.61
202.144	66.18
202.38	-437.89
202.616	53.26
202.852	-42.9
203.088	13.46
203.324	-396.84
203.56	-539.02
203.796	-72.94
204.032	24.85
204.268	297.92
204.503	304.69
204.739	-37.57
204.975	-63.88
205.211	-28.89
205.446	2.68
205.682	-18.41
205.918	-1209.3
206.153	29.09
206.389	216.67
206.625	156.33
206.86	73.86
207.096	-48.75
207.331	-2.11
207.567	-216.67
207.802	44.22
208.037	-28.26
208.273	-13.77
208.508	0
208.744	-95.03
208.979	29.75
209.214	-12025
209.449	-126.71
209.685	-121.38
209.92	22.54
210.155	-49.16
210.39	87.89
210.625	-278.57
210.86	-243.43
211.095	344.12
211.33	19.9
211.565	-529.63
211.8	74.71
212.035	268.6
212.27	39.82
212.505	267.38
212.74	59.39
212.975	1654.55
213.21	-3
213.444	-23.71
213.679	93.27
213.914	-19.85
214.149	-43.87
214.383	20.58
214.618	27.08
214.853	-11.02
215.087	-370.43
215.322	-71.12
215.556	-280.9
215.791	-695.35
216.025	-225.62
216.26	-122.49
216.494	210.81
216.729	-132.41
216.963	14.65
217.197	0
217.432	-3.06
217.666	-348.78
217.9	0
218.135	99.41
218.369	4911.11
218.603	210.18
218.837	-38.98
219.071	126.95
219.306	43.87
219.54	45.14
219.774	110.29
220.008	241.32
220.242	-257.85
220.476	-2141.18
220.71	113.78
220.944	-6
221.178	-681.71
221.411	-215.17
221.645	88.71
221.879	97.01
222.113	-1950
222.347	-14.65
222.58	-61.9
222.814	9.33
223.048	-228.7
223.281	23.88
223.515	540.71
223.749	-186.88
223.982	-51.27
224.216	1222
224.449	213.82
224.683	-118.18
224.916	-457.41
225.15	14.89
225.383	299
225.617	-76.59
225.85	-31.41
226.083	226.09
226.317	80.36
226.55	-71.86
226.783	84.26
227.016	30.3
227.25	1857.14
227.483	533.93
227.716	2.54
227.949	-69.96
228.182	0
228.415	-37.03
228.648	-406.25
228.881	93.81
229.114	7.32
229.347	39.33
229.58	546
229.813	-0
230.046	-39.39
230.279	-6.6
230.512	4.06
230.745	-28.23
230.977	29.34
231.21	71.04
231.443	-75.06
231.675	147.48
231.908	-1605.88
232.141	16.56
232.373	-684.21
232.606	79.59
232.839	-49.6
233.071	40.44
233.304	-211.74
233.536	0
233.769	113.82
234.001	6.22
234.233	-325
234.466	-38.53
234.698	452.45
234.93	-80.69
235.163	15.26
235.395	-695.35
235.627	39.39
235.86	-376.81
236.092	92.39
236.324	19.88
236.556	41.43
236.788	20.88
237.02	21.97
237.252	51.83
237.484	88.14
237.716	-780
237.948	-17.16
238.18	-32.23
238.412	-65.33
238.644	213.28
238.876	-235.63
239.108	-102.85
239.34	-106.56
239.571	-106.43
239.803	-87.8
240.035	79.32
240.267	173.79
240.498	-722.22
240.73	1129.51
240.962	-71.86
241.193	37.55
241.425	44.62
241.656	346.04
241.888	-49.46
242.119	21.77
242.351	-906.98
242.582	98.11
242.814	75.21
243.045	99.31
243.277	-77.61
243.508	245.95
243.739	195.38
243.971	-117.99
244.202	66.29
244.433	-157.8
244.664	38.67
244.896	-69.94
245.127	-1.6
245.358	-1276.79
245.589	-202.89
245.82	299.71
246.051	-78.7
246.282	-12.21
246.513	58.43
246.744	41.71
246.975	-507.32
247.206	-111.55
247.437	-84.23
247.668	-517.59
247.899	-32.16
248.129	16.25
248.36	-36.03
248.591	-64.13
248.822	11.06
249.052	58.21
249.283	-71.54
249.514	34.36
249.744	-24.12
249.975	-69.94
250.206	-64.83
250.436	-31.61
250.667	205.76
250.897	-56.29
251.128	22.13
251.358	702.7
251.589	260
251.819	-21.67
252.049	-93.86
252.28	18.91
252.51	-31.71
252.74	-12.87
252.971	-3250
253.201	-53.22
253.431	-79.55
253.661	67.45
253.891	-195
254.121	1.46
254.352	34.67
254.582	2005.71
254.812	-51.79
255.042	-97.99
255.272	-235.43
255.502	-45.92
255.732	1588.89
255.962	596.72
256.192	-7.21
256.421	-111.55
256.651	-110.76
256.881	-236.89
257.111	48.9
257.341	-51.04
257.57	148.03
257.8	-21.87
258.03	-13.91
258.259	18.08
258.489	38.76
258.719	20.35
258.948	-13.96
259.178	-39.03
259.407	851.33
259.637	27.86
259.866	40.63
260.096	-235.18
260.325	-45.09
260.555	202.1
260.784	2.48
261.013	-1508.93
261.243	4.84
261.472	755.41
261.701	46.22
261.931	-83.71
262.16	173.84
262.389	26.4
262.618	-226.52
262.847	-15.66
263.076	30.3
263.305	-13.65
263.535	-318.87
263.764	10.72
263.993	1.42
264.222	69.37
264.451	128.03
264.679	-8.07
264.908	4.39
265.137	53.83
265.366	86.94
265.595	-87.43
265.824	-3.98
266.053	-7.37
266.281	-300.58
266.51	32.99
266.739	-1.72
266.967	16.58
267.196	14300
267.425	-118.78
267.653	-106.68
267.882	-61.18
268.11	185.71
268.339	-18.31
268.567	-134.91
268.796	-202.1
269.024	-46.43
269.253	-204.72
269.481	12.42
269.709	-33.09
269.938	60.82
270.166	-6.34
270.394	-126.44
270.623	-11.06
270.851	15.2
271.079	-49.55
271.307	69.25
271.535	248.7
271.764	-36.11
271.992	202.84
272.22	-63.76
272.448	-68.42
272.676	133.04
272.904	8.97
273.132	52.85
273.36	12.42
273.588	257.6
273.816	-68.55
274.043	-96.07
274.271	73.16
274.499	-52
274.727	-505.56
274.955	-51.27
275.182	-13.85
275.41	-391.4
275.638	178.34
275.866	1164.58
276.093	125.44
276.321	-306.6
276.548	14.46
276.776	-144.44
277.003	71.54
277.231	1745.71
277.458	-99.13
277.686	-81.25
277.913	-73.12
278.141	22.1
278.368	61.45
278.595	26.1
278.823	-412.2
279.05	-234.66
279.277	-18.41
279.505	-116.55
279.732	-134.66
279.959	1968.57
280.186	12.78
280.413	-14.92
280.641	-37.57
280.868	-73.09
281.095	-196.64
281.322	-1646.67
281.549	-65.26
281.776	-9.45
282.003	1.86
282.23	-112.07
282.457	-34.12
282.683	53.49
282.91	-97.5
283.137	25.78
283.364	2422.73
283.591	-169.33
283.818	-1950
284.044	-1118.6
284.271	63.99
284.498	-81.52
284.724	9.38
284.951	11.8
285.178	4.52
285.404	20.25
285.631	82.49
285.857	-13.54
286.084	-73.58
286.31	-125.27
286.537	-90.07
286.763	39.21
286.99	-45.54
287.216	5633.33
287.442	-336.05
287.669	35.78
287.895	56.52
288.121	299.28
288.347	-49.16
288.574	3.55
288.8	-5.51
289.026	-88.64
289.252	-42.9
289.478	-232.84
289.704	-12.06
289.931	45.1
290.157	7.26
290.383	-2.77
290.609	-4.84
290.835	29.59
291.06	-13.2
291.286	-13.65
291.512	-225.43
291.738	173.73
291.964	9.48
292.19	-185.71
292.416	-167.74
292.641	-111.79
292.867	-12.78
293.093	1411.43
293.319	28.42
293.544	-187.12
293.77	-244.62
293.995	113.82
294.221	15.48
294.447	-12.1
294.672	-98.32
294.898	21.83
295.123	-36.29
295.349	-205.7
295.574	190.24
295.799	-21.02
296.025	23.09
296.25	-60.59
296.476	78
296.701	13.78
296.926	-2.36
297.151	-206.82
297.377	297.14
297.602	-135.76
297.827	18.47
298.052	-219.38
298.277	7.23
298.502	-12.61
298.727	13.65
298.953	-30.19
299.178	31.71
299.403	-39.2
299.628	25.37
299.852	16.39
300.077	-6347.06
300.302	14.89
300.527	-158.38
300.752	-39.66
300.977	247
301.202	618.03
301.426	-136.48
301.651	-95.95
301.876	-433.33
302.101	-196.81
302.325	18.66
302.55	-215.88
302.775	-120.11
302.999	48.77
303.224	-40.62
303.448	14.86
303.673	-264.81
303.897	83.87
304.122	-101.86
304.346	17.54
304.571	71.26
304.795	-53.06
305.019	-8.64
305.244	10.35
305.468	439.19
305.692	181.21
305.917	-343.8
306.141	-66.96
306.365	404.92
306.589	-12.38
306.813	-40.51
307.038	-21.67
307.262	-17.16
307.486	-6.19
307.71	1950
307.934	83.72
308.158	-90.17
308.382	-29.15
308.606	-112.58
308.83	-4.62
309.054	-306.22
309.278	4.14
309.502	41.45
309.725	-15.03
309.949	-39.16
310.173	18.68
310.397	28.65
310.62	-232.84
310.844	-46.93
311.068	-276.25
311.292	37.09
311.515	-10.1
311.739	812.5
311.962	-54.93
312.186	6.12
312.41	22.9
312.633	-71.61
312.857	15.31
313.08	-445.37
313.303	-38.56
313.527	-33.07
313.75	8.58
313.974	-33.89
314.197	-136.1
314.42	42.03
314.644	46.99
314.867	-7.32
315.09	-37.52
315.313	35.22
315.536	-7.78
315.76	-188.28
315.983	-143.73
316.206	-61.45
316.429	-357.5
316.652	-260
316.875	20.15
317.098	-12.84
317.321	42.06
317.544	-186.87
317.767	26.03
317.99	99.08
318.213	-33.72
318.436	-32.91
318.658	-14.49
318.881	-68.86
319.104	-18.57
319.327	7.95
319.55	-170.92
319.772	18.73
319.995	-390
320.218	14.22
320.44	433.33
320.663	39.59
320.885	-102.28
321.108	3.11
321.331	-45.79
321.553	-139.87
321.776	-4550
321.998	29.2
322.22	-96.3
322.443	-14.77
322.665	104
322.888	-5.86
323.11	36.94
323.332	-6.63
323.555	38.24
323.777	-193.86
323.999	-81.36
324.221	8.04
324.443	4.48
324.666	-39.78
324.888	-14.44
325.11	-204.13
325.332	6.53
325.554	-73.58
325.776	-60.42
325.998	-544.19
326.22	-357.97
326.442	8.26
326.664	-7.83
326.886	-257.55
327.108	-22.41
327.33	98.22
327.551	-27.39
327.773	16.34
327.995	46.64
328.217	-24.86
328.439	-53.28
328.66	8.88
328.882	-257.85
329.104	-812.5
329.325	-11.69
329.547	68.56
329.769	34.32
329.99	12.01
330.212	639.34
330.433	-16.95
330.655	-2.03
330.876	95.82
331.098	596.72
331.319	-35.96
331.54	-16.27
331.762	-111.43
331.983	-41.77
332.204	-29.15
332.426	-21.03
332.647	335.96
332.868	12.17
333.089	-197.24
333.311	-15.55
333.532	-75.58
333.753	-2643.33
333.974	15.29
334.195	-42.39
334.416	37.52
334.637	-111.83
334.858	19.37
335.079	34.21
335.3	-78.51
335.521	-241.71
335.742	-414.49
335.963	-47.14
336.184	42.03
336.405	29.37
336.626	4.15
336.846	0
337.067	21.67
337.288	45.24
337.509	-2383.33
337.729	46.43
337.95	-483.72
338.171	-91.46
338.391	-8.5
338.612	83.2
338.833	920.83
339.053	-154.1
339.274	57.39
339.494	-37.32
339.715	288.89
339.935	41.14
340.156	-79.87
340.376	36.71
340.596	-6
340.817	817.14
341.037	111.08
341.257	27.54
341.478	-46.17
341.698	-24.73
341.918	-138.12
342.138	-71.95
342.359	-363.44
342.579	3.9
342.799	-93.56
343.019	48.62
343.239	26.41
343.459	46.82
343.679	11.47
343.899	28.89
344.119	60.03
344.339	4.11
344.559	-59.38
344.779	118.18
344.999	-26.03
345.219	53.54
345.439	71.65
345.658	8233.33
345.878	1787.5
346.098	-19.83
346.318	-13.72
346.537	1536.36
346.757	89.86
346.977	46.5
347.196	15.18
347.416	40.15
347.636	-20.78
347.855	21.85
348.075	-88.64
348.294	56.88
348.514	-48.15
348.733	63.82
348.953	-355.79
349.172	-98.22
349.392	-54.59
349.611	40.51
349.83	49.46
350.05	-172.48
350.269	-40.51
350.488	-23.9
350.707	149.43
350.927	8.39
351.146	79.9
351.365	-48.73
351.584	-206.82
351.803	0
352.023	-44.83
352.242	13.64
352.461	46.22
352.68	-62.15
352.899	-26.76
353.118	35.56
353.337	-54.17
353.556	-11.4
353.775	11.28
353.993	-72.59
354.212	19.94
354.431	-18.68
354.65	33.59
354.869	-33.66
355.088	6.42
355.306	104.66
355.525	-4.89
355.744	3.37
355.962	-160.75
356.181	1229.73
356.4	-15.2
356.618	-23.25
356.837	-89.09
357.055	-71.04
357.274	43.54
357.492	-228.7
357.711	35.56
357.929	-4.32
358.148	-531.56
358.366	106.43
358.585	160.67
358.803	-167.33
359.021	678.76
359.24	1.6
359.458	-136.1
359.676	-5.04
359.894	-32.66
360.113	27.83
360.331	-32.69
360.549	445.71
360.767	57.39
360.985	135.82
361.203	-66.98
361.421	-44.79
361.639	0
361.857	39.84
362.075	-33.07
362.293	-5.74
362.511	-148.1
362.729	-155.43
362.947	-160.65
363.165	-130
363.383	-6.47
363.601	29.25
363.819	-3.3
364.036	-30.9
364.254	184.77
364.472	-49.69
364.689	-120.85
364.907	-63.78
365.125	-32.5
365.342	-285.55
365.56	87.47
365.778	-39.07
365.995	-398.13
366.213	-55.91
366.43	27.29
366.648	-18.06
366.865	38.24
367.083	-27.71
367.3	64.02
367.517	0
367.735	-13.2
367.952	-47.61
368.17	-17.59
368.387	-46.31
368.604	-15.99
368.821	-179.31
369.039	-12.11
369.256	8.66
369.473	47.68
369.69	-201.46
369.907	-2275
370.124	2718.18
370.341	184.8
370.558	-40.21
370.776	19.44
370.993	-20.78
371.21	-80.56
371.426	-72.87
371.643	-6.03
371.86	49.8
372.077	-35.86
372.294	3.32
372.511	-47.51
372.728	-77.96
372.945	63.09
373.161	-25.79
373.378	-79.82
373.595	-107.22
373.811	17.79
374.028	-43.58
374.245	-18.87
374.461	-61.71
374.678	53.24
374.895	-47.79
375.111	-38.56
375.328	22.15
375.544	685.14
375.761	14.22
375.977	-19.21
376.194	4.97
376.41	-125.44
376.626	1.74
376.843	-15.21
377.059	19.95
377.275	-31.3
377.492	53.12
377.708	-26.85
377.924	1.99
378.14	-59.26
378.357	43.19
378.573	-156.33
378.789	7.03
379.005	25.87
379.221	-99.27
379.437	-12.4
379.653	18.11
379.869	-7.03
380.085	-78.51
380.301	-4.48
380.517	6.42
380.733	-2.03
380.949	-54.88
381.165	-14.05
381.381	1.63
381.597	19.59
381.813	24.92
382.028	-64.32
382.244	-30.62
382.46	-14.8
382.676	-13.29
382.891	-109.44
383.107	-25.64
383.323	-29.28
383.538	-84.98
383.754	-33.63
383.969	33.16
384.185	1.38
384.4	-10.38
384.616	-61.74
384.831	15.99
385.047	-63.93
385.262	-9.32
385.478	11.92
385.693	11.06
385.909	28.91
386.124	8.63
386.339	11.83
386.554	0
386.77	17.07
386.985	-31.64
387.2	45.35
387.415	66.24
387.631	9.54
387.846	29.12
388.061	-19.21
388.276	-5.74
388.491	-26.45
388.706	-13.64
388.921	24.94
389.136	-6.12
389.351	-8.9
389.566	-77.13
389.781	24.89
389.996	39.3
390.211	0
390.426	38
390.641	-4.15
390.855	-10.75
391.07	10.98
391.285	-6.42
391.5	-35.92
391.714	22.81
391.929	35.6
392.144	18.51
392.358	-46.61
392.573	-4.23
392.788	-18.71
393.002	-16.03
393.217	4.57
393.431	-21.67
393.646	10.87
393.86	16.53
394.075	-2.56
394.289	13.42
394.504	-29.74
394.718	23.98
394.933	12.34
395.147	4.89
395.361	6
395.576	11.96
395.79	-18.15
396.004	2.97
396.218	16.82
396.432	-6.07
396.647	-0.83
396.861	25.29
397.075	12.66
397.289	8.19
397.503	9.42
397.717	5.06
397.931	14.94
398.145	8.72
398.359	9.36
398.573	4.78
398.787	8.39
399.001	17.88
399.215	21.53
399.429	3.5
399.643	11.39
399.857	1.5
400.07	5.53
400.284	11.33
400.498	12.22
400.712	10.64
400.925	20.98
401.139	11.81
401.353	16.7
401.566	12.14
401.78	15.2
401.994	8.82
402.207	13.34
402.421	9.08
402.634	3.23
402.848	12.16
403.061	4.33
403.275	18.94
403.488	14.07
403.702	19.29
403.915	8.71
404.128	6.22
404.342	7.07
404.555	7.17
404.768	18.13
404.982	20.63
405.195	3.96
405.408	9.61
405.621	10.03
405.835	10.91
406.048	13.57
406.261	10.07
406.474	23.6
406.687	11.74
406.9	12.21
407.113	12.95
407.326	17.29
407.539	13.76
407.752	10.13
407.965	12.93
408.178	10
408.391	11.73
408.604	13.04
408.817	8.53
409.029	9.57
409.242	14.44
409.455	12.01
409.668	14.26
409.881	17.96
410.093	10.28
410.306	15.51
410.519	13.32
410.731	10.29
410.944	13.76
411.157	14.22
411.369	14.12
411.582	11.98
411.794	13.84
412.007	14.17
412.219	16.99
412.432	16.46
412.644	15.41
412.857	13.86
413.069	12.75
413.281	13.48
413.494	12.16
413.706	14.01
413.918	14.95
414.131	12.35
414.343	8.14
414.555	12.44
414.767	11.75
414.979	11.93
415.192	10.69
415.404	11.04
415.616	13.1
415.828	13.98
416.04	10.98
416.252	15.3
416.464	12.3
416.676	10.69
416.888	11.29
417.1	10.27
417.312	10.66
417.524	13.58
417.736	11.26
417.948	10.51
418.159	10.35
418.371	10.41
418.583	9.21
418.795	9.74
419.007	14.87
419.218	9.15
419.43	9.41
419.642	9.89
419.853	9.41
420.065	11.84
420.276	12.56
420.488	10.86
420.7	7.68
420.911	11.14
421.123	9.52
421.334	9.94
421.546	9.71
421.757	9.79
421.969	8.38
422.18	7.46
422.391	9.45
422.603	8.3
422.814	10.12
423.025	7.99
423.237	10.1
423.448	8.11
423.659	12.22
423.87	6.79
424.082	8.29
424.293	8.08
424.504	9.52
424.715	8.36
424.926	5.36
425.137	6.28
425.348	6.13
425.559	8.68
425.77	8.36
425.981	6.77
426.192	9.34
426.403	6.17
426.614	6.22
426.825	6.89
427.036	8.56
427.247	3.78
427.458	8.57
427.668	5.32
427.879	5.72
428.09	8.09
428.301	4.6
428.511	5.03
428.722	3.75
428.933	4.18
429.143	5.23
429.354	6.54
429.565	5.68
429.775	2.71
429.986	5.87
430.196	5.67
430.407	3.82
430.617	1.4
430.828	1.96
431.038	5.98
431.249	4.44
431.459	4.56
431.669	5.9
431.88	7.26
432.09	5.32
432.3	4.67
432.511	4.19
432.721	5.06
432.931	5.67
433.141	3.38
433.351	2.07
433.562	4.51
433.772	5.71
433.982	3.15
434.192	4.27
434.402	3.93
434.612	0.97
434.822	3.02
435.032	3.95
435.242	2.88
435.452	2.05
435.662	1.94
435.872	3.22
436.082	3.05
436.292	2.68
436.502	3.63
436.711	0.69
436.921	2.42
437.131	2.08
437.341	0.26
437.551	4.56
437.76	5.13
437.97	2.46
438.18	3.04
438.389	1.12
438.599	1.56
438.808	1.26
439.018	-0.83
439.228	4.22
439.437	3.78
439.647	1.31
439.856	3.59
440.066	2.39
440.275	1.62
440.484	6.4
440.694	3.97
440.903	2.45
441.113	2.11
441.322	2.96
441.531	3.06
441.741	3.39
441.95	3.62
442.159	2.49
442.368	3.76
442.577	1.8
442.787	2.92
442.996	2.55
443.205	1.02
443.414	1.13
443.623	3.19
443.832	2.82
444.041	2.93
444.25	4.62
444.459	1.48
444.668	0.85
444.877	4.68
445.086	1.34
445.295	1.38
445.504	4.07
445.713	1.19
445.922	-0.51
446.13	3.97
446.339	-1.07
446.548	0.92
446.757	2.01
446.965	-2.21
447.174	-0.06
447.383	2.19
447.591	-0.07
447.8	1.07
448.009	2.7
448.217	1.91
448.426	0.13
448.634	3.69
448.843	1.74
449.051	2.99
449.26	0.92
449.468	2.76
449.677	1.93
449.885	0.21
450.093	1.6
450.302	0.97
450.51	1.6
450.719	-0.55
450.927	1.99
451.135	1.59
451.343	1.42
451.552	2.49
451.76	1.05
451.968	0.13
452.176	0.07
452.384	0.54
452.592	3.37
452.8	-0.34
453.009	1.25
453.217	1.37
453.425	0.87
453.633	-1.13
453.841	1.58
454.049	0.67
454.257	3
454.464	2.32
454.672	3.19
454.88	0.98
455.088	-0.79
455.296	1.35
455.504	3.61
455.711	1.07
455.919	1.93
456.127	1.03
456.335	3.07
456.542	4.09
456.75	1.11
456.958	1.64
457.165	0.7
457.373	-1.32
457.581	0.13
457.788	-1.26
457.996	0.4
458.203	1.81
458.411	3.41
458.618	0.43
458.826	3.67
459.033	4.5
459.24	2.86
459.448	-0.59
459.655	2.31
459.863	2.04
460.07	0.06
460.277	-0.54
460.484	0.61
460.692	-0.78
460.899	-1.41
461.106	0.13
461.313	1.63
461.52	0.97
461.728	1.89
461.935	4.36
462.142	1.29
462.349	2.24
462.556	2.29
462.763	0.46
462.97	0.12
463.177	1.48
463.384	0.78
463.591	1.16
463.798	2.21
464.005	0.95
