Data from 2019-05-04_Transmission_20-11-00-819.txt Node
Date: Sat May 04 20:11:00 EDT 2019
User: dh1006
Spectrometer: USB4E01358
Autoset integration time: false
Trigger mode: 4
Integration Time (sec): 1.000000E-1
Scans to average: 10
Electric dark correction enabled: true
Nonlinearity correction enabled: false
Boxcar width: 0
Stray light correction enabled: false
XAxis mode: Wavelengths
Stop averaging: false
Number of Pixels in Spectrum: 3648
>>>>>Begin Spectral Data<<<<<
176.727	372.61
176.966	372.61
177.205	372.61
177.444	68.49
177.683	-233.33
177.922	119.03
178.161	308.75
178.4	177.59
178.638	346.64
178.877	6050
179.116	74.58
179.355	-307.91
179.593	1159.73
179.832	-484.67
180.071	93.39
180.309	16.23
180.548	212.43
180.786	49.03
181.025	104.75
181.263	-112
181.502	131.62
181.74	65.86
181.979	63.36
182.217	-2205
182.456	35.8
182.694	126.6
182.932	19.76
183.17	17.91
183.409	-10.51
183.647	92.02
183.885	850
184.123	51.53
184.361	18.16
184.6	-6.57
184.838	90.88
185.076	45.83
185.314	15.07
185.552	33.83
185.79	67.27
186.028	92.99
186.266	37.98
186.503	50.49
186.741	51.11
186.979	27.59
187.217	-4.82
187.455	47.9
187.693	132.92
187.93	123.63
188.168	9.19
188.406	94.53
188.643	87.21
188.881	98.64
189.119	243.14
189.356	45.98
189.594	30.73
189.831	111.77
190.069	11.45
190.306	38.66
190.543	47.23
190.781	124.05
191.018	-5.03
191.256	15.38
191.493	-121.11
191.73	70.96
191.967	-41.99
192.205	39.32
192.442	62.93
192.679	49.93
192.916	36.46
193.153	77.84
193.39	61.44
193.628	13.69
193.865	70.12
194.102	33.62
194.339	50.13
194.576	48.07
194.813	58.14
195.049	40.54
195.286	40.2
195.523	46.62
195.76	47.84
195.997	64.33
196.234	11.87
196.47	59.62
196.707	33.01
196.944	43.64
197.18	22.16
197.417	71.88
197.654	62.38
197.89	12.09
198.127	116.9
198.363	36.29
198.6	130.62
198.836	10.07
199.073	-1546.87
199.309	90.4
199.546	59.99
199.782	87.79
200.018	77.26
200.255	41.68
200.491	13.32
200.727	31.56
200.963	57.67
201.199	43.94
201.436	124.52
201.672	48.19
201.908	70.53
202.144	76.48
202.38	55.98
202.616	83.49
202.852	20.64
203.088	118
203.324	57.41
203.56	54.76
203.796	61.7
204.032	48.09
204.268	74.84
204.503	296.93
204.739	82.79
204.975	57.26
205.211	80.45
205.446	176.24
205.682	31.2
205.918	104.21
206.153	-77.57
206.389	139.93
206.625	78.92
206.86	24.73
207.096	39.81
207.331	64.78
207.567	87.7
207.802	38.64
208.037	55.93
208.273	9.89
208.508	52.37
208.744	106.22
208.979	206.15
209.214	50.5
209.449	83.84
209.685	55.29
209.92	35.26
210.155	95.06
210.39	115.68
210.625	128.11
210.86	73.46
211.095	319.27
211.33	23.42
211.565	14.25
211.8	63.97
212.035	48.85
212.27	55.68
212.505	2.58
212.74	49.06
212.975	134.97
213.21	29.63
213.444	133.14
213.679	-4.88
213.914	76.72
214.149	118.41
214.383	46.52
214.618	79.87
214.853	31.07
215.087	13.19
215.322	26.19
215.556	72.46
215.791	75.57
216.025	101.52
216.26	39.83
216.494	165.46
216.729	86.82
216.963	106.9
217.197	45.81
217.432	60.45
217.666	33.08
217.9	27.35
218.135	79.91
218.369	52.83
218.603	69.18
218.837	91.67
219.071	219.25
219.306	32.47
219.54	169.36
219.774	108.22
220.008	83.42
220.242	28.78
220.476	53.93
220.71	68.37
220.944	70.47
221.178	109.37
221.411	33.2
221.645	-361.23
221.879	66.9
222.113	26.41
222.347	60.6
222.58	51.64
222.814	96.22
223.048	66.25
223.281	90.85
223.515	51.84
223.749	76.88
223.982	49.74
224.216	42.65
224.449	292.4
224.683	33.28
224.916	33.91
225.15	4.65
225.383	70.4
225.617	36.72
225.85	260.8
226.083	84.84
226.317	50.16
226.55	24.04
226.783	65.09
227.016	43.71
227.25	125.13
227.483	113.66
227.716	21.41
227.949	76.3
228.182	-28.38
228.415	92.24
228.648	55.56
228.881	76.5
229.114	74.12
229.347	63.28
229.58	49.28
229.813	19.56
230.046	46.39
230.279	44.74
230.512	94.81
230.745	62.65
230.977	83.39
231.21	66.2
231.443	78.61
231.675	93.32
231.908	-51.52
232.141	52.11
232.373	78.96
232.606	62.27
232.839	59.22
233.071	73.15
233.304	119.24
233.536	10.86
233.769	42.05
234.001	73.07
234.233	176.53
234.466	23.7
234.698	86.7
234.93	110.44
235.163	84.78
235.395	-37.2
235.627	69.06
235.86	44.31
236.092	15.59
236.324	102.96
236.556	5.05
236.788	95.4
237.02	87.49
237.252	54.05
237.484	13.97
237.716	58.98
237.948	33.95
238.18	40.76
238.412	68.97
238.644	-13.92
238.876	0.17
239.108	48.86
239.34	1.46
239.571	75.2
239.803	-1750
240.035	29.78
240.267	49.39
240.498	47.38
240.73	71.03
240.962	119.42
241.193	32.42
241.425	66.84
241.656	43.91
241.888	54.1
242.119	27.28
242.351	103.47
242.582	75.15
242.814	90.31
243.045	51.77
243.277	68.92
243.508	17.15
243.739	75.13
243.971	58.34
244.202	44.73
244.433	0.04
244.664	78.21
244.896	112.96
245.127	60.51
245.358	68.52
245.589	113.99
245.82	61.96
246.051	94.89
246.282	141.65
246.513	73.94
246.744	16.09
246.975	29.1
247.206	12.62
247.437	64.29
247.668	102.18
247.899	29.21
248.129	72.32
248.36	56.18
248.591	49.58
248.822	46.03
249.052	96.61
249.283	-13.19
249.514	82.24
249.744	89.15
249.975	16.47
250.206	-1.34
250.436	37.09
250.667	144.06
250.897	76.79
251.128	118.98
251.358	47.67
251.589	225.79
251.819	18.48
252.049	61.65
252.28	31.64
252.51	53.95
252.74	12.26
252.971	69.26
253.201	19.72
253.431	68.11
253.661	32.39
253.891	56.38
254.121	22.83
254.352	37.14
254.582	58.11
254.812	35.45
255.042	67.82
255.272	196.21
255.502	37.77
255.732	56.66
255.962	46.28
256.192	45.64
256.421	58.93
256.651	80.03
256.881	49.46
257.111	28.92
257.341	24.98
257.57	140.47
257.8	-123.17
258.03	26.61
258.259	57.46
258.489	40.84
258.719	51.43
258.948	110.18
259.178	58.12
259.407	44.5
259.637	47.42
259.866	99.86
260.096	22.27
260.325	52.61
260.555	104.76
260.784	22.29
261.013	42.91
261.243	33.03
261.472	-12.44
261.701	-79.57
261.931	113.04
262.16	11.47
262.389	84.72
262.618	3.77
262.847	93.92
263.076	77.71
263.305	49.23
263.535	77.02
263.764	38.54
263.993	57.26
264.222	209.85
264.451	54.12
264.679	35.82
264.908	60.44
265.137	42.5
265.366	55.2
265.595	91.06
265.824	60.65
266.053	114.18
266.281	54.64
266.51	28.89
266.739	77.94
266.967	74.18
267.196	48.68
267.425	92.92
267.653	30.71
267.882	24.29
268.11	69.51
268.339	154.22
268.567	64.22
268.796	23.6
269.024	56.17
269.253	104.2
269.481	19.68
269.709	34.87
269.938	19.67
270.166	49.36
270.394	11.32
270.623	57.23
270.851	32.03
271.079	81.21
271.307	91.41
271.535	64.19
271.764	177.13
271.992	14.62
272.22	4.45
272.448	68.63
272.676	94.27
272.904	123.05
273.132	68.35
273.36	72.17
273.588	59.11
273.816	63.66
274.043	27.84
274.271	56.65
274.499	59.75
274.727	111.21
274.955	17
275.182	67.38
275.41	31.87
275.638	-3.91
275.866	96.24
276.093	82.22
276.321	43.74
276.548	57.12
276.776	105.95
277.003	50.26
277.231	106.47
277.458	98.96
277.686	46.18
277.913	60.96
278.141	48.93
278.368	48.91
278.595	46.07
278.823	35.35
279.05	52.4
279.277	48.15
279.505	103.03
279.732	72.96
279.959	88
280.186	15.9
280.413	63.7
280.641	76.52
280.868	53.16
281.095	79.71
281.322	15.93
281.549	79.53
281.776	42.26
282.003	59.46
282.23	72.78
282.457	75.49
282.683	62.07
282.91	45.78
283.137	34.76
283.364	51.57
283.591	28.22
283.818	27.34
284.044	79.29
284.271	0.04
284.498	113.95
284.724	49.57
284.951	35.34
285.178	3.27
285.404	69.91
285.631	39.52
285.857	47.35
286.084	87.44
286.31	-5.85
286.537	56.63
286.763	36.75
286.99	41.2
287.216	76.62
287.442	47.51
287.669	36.16
287.895	34.6
288.121	75.77
288.347	9.34
288.574	78.55
288.8	33.72
289.026	21.2
289.252	32.89
289.478	35.26
289.704	90.6
289.931	38.79
290.157	30.33
290.383	45.95
290.609	57.64
290.835	66.85
291.06	22.83
291.286	36.06
291.512	31.04
291.738	41.75
291.964	60.56
292.19	60.86
292.416	60.16
292.641	66.42
292.867	54.47
293.093	31.14
293.319	71.31
293.544	75.37
293.77	30.04
293.995	73.81
294.221	24.64
294.447	75.97
294.672	66.93
294.898	33.85
295.123	60.56
295.349	37.13
295.574	32.59
295.799	32.59
296.025	36.03
296.25	49.93
296.476	41.83
296.701	97.28
296.926	75.05
297.151	43.76
297.377	64.49
297.602	57.23
297.827	58.07
298.052	36.61
298.277	41.89
298.502	117.89
298.727	57.33
298.953	60.76
299.178	34.66
299.403	57.93
299.628	0.3
299.852	37.24
300.077	62.23
300.302	2.83
300.527	81.09
300.752	50.12
300.977	84.38
301.202	38.78
301.426	59.11
301.651	39.79
301.876	48.6
302.101	75.98
302.325	45.1
302.55	47.56
302.775	96.55
302.999	62.97
303.224	63.34
303.448	42.48
303.673	48.32
303.897	45.58
304.122	37.45
304.346	75.95
304.571	36.53
304.795	20.63
305.019	50.76
305.244	60.2
305.468	57.86
305.692	56.98
305.917	47.25
306.141	87.85
306.365	65.16
306.589	30.3
306.813	44.2
307.038	-254.37
307.262	45.93
307.486	13.97
307.71	57.97
307.934	50.85
308.158	35.06
308.382	51.53
308.606	51.84
308.83	39.48
309.054	42.47
309.278	44.4
309.502	52.32
309.725	54.58
309.949	63.06
310.173	71.48
310.397	56.14
310.62	18.63
310.844	68.53
311.068	64.64
311.292	25.74
311.515	35.35
311.739	42.69
311.962	49.5
312.186	56.33
312.41	73.89
312.633	48.2
312.857	52.24
313.08	51.62
313.303	56.4
313.527	40.69
313.75	76.15
313.974	42.95
314.197	42.96
314.42	35.54
314.644	28.48
314.867	92.3
315.09	45.4
315.313	53.67
315.536	73.48
315.76	49.46
315.983	39.82
316.206	34.5
316.429	17.43
316.652	-4.31
316.875	7.48
317.098	42.96
317.321	43.18
317.544	92.1
317.767	-34.74
317.99	85.17
318.213	79.91
318.436	21.35
318.658	73.26
318.881	68.43
319.104	50.71
319.327	60.25
319.55	42.99
319.772	66.47
319.995	43.18
320.218	53.5
320.44	72.23
320.663	30.48
320.885	48.18
321.108	81.21
321.331	97.8
321.553	74.54
321.776	45.96
321.998	104.14
322.22	68.46
322.443	60.71
322.665	78.45
322.888	31.53
323.11	48.87
323.332	73.29
323.555	72.04
323.777	28.17
323.999	-2.66
324.221	30.3
324.443	60.21
324.666	15.86
324.888	36.73
325.11	75.16
325.332	35.25
325.554	30.12
325.776	70.41
325.998	48.96
326.22	71.65
326.442	49.95
326.664	59.31
326.886	74.98
327.108	60.74
327.33	50.43
327.551	30.9
327.773	69.95
327.995	52.55
328.217	62.66
328.439	103.01
328.66	55.73
328.882	87.74
329.104	23.74
329.325	48.22
329.547	-3.66
329.769	25.43
329.99	38.55
330.212	48.75
330.433	63.94
330.655	52.3
330.876	49.43
331.098	91.91
331.319	64.35
331.54	26.94
331.762	61.81
331.983	109.65
332.204	49.24
332.426	22.42
332.647	30.01
332.868	43.45
333.089	83.74
333.311	6.64
333.532	77.47
333.753	68.48
333.974	81
334.195	38.9
334.416	59.39
334.637	47.23
334.858	64.43
335.079	64.06
335.3	72.17
335.521	41.16
335.742	53.29
335.963	72.8
336.184	53.44
336.405	55.8
336.626	114.49
336.846	73.72
337.067	29.92
337.288	1.29
337.509	32.18
337.729	43.66
337.95	-7.4
338.171	41.86
338.391	102.4
338.612	28.09
338.833	66.49
339.053	73.91
339.274	35.59
339.494	64.58
339.715	37.91
339.935	56.57
340.156	70.27
340.376	35.06
340.596	27.33
340.817	-0.23
341.037	38.8
341.257	49.48
341.478	68.53
341.698	67.63
341.918	91.19
342.138	29.45
342.359	13.97
342.579	-3.05
342.799	64.37
343.019	53.94
343.239	106.2
343.459	52.89
343.679	46.5
343.899	51.69
344.119	61.03
344.339	25.05
344.559	82.68
344.779	44.56
344.999	39.61
345.219	40.02
345.439	70.1
345.658	39.4
345.878	69.32
346.098	76.62
346.318	32.64
346.537	42.65
346.757	40.54
346.977	42.94
347.196	87.89
347.416	84.25
347.636	55.72
347.855	51.74
348.075	65.53
348.294	59.33
348.514	94.2
348.733	62.27
348.953	3.72
349.172	61.09
349.392	22.18
349.611	8.46
349.83	83.66
350.05	51.85
350.269	19.59
350.488	37.79
350.707	6.08
350.927	92.03
351.146	76.48
351.365	49.95
351.584	50.08
351.803	42.68
352.023	36.76
352.242	50.63
352.461	30.58
352.68	50.79
352.899	69.81
353.118	33.45
353.337	60.45
353.556	59.94
353.775	14.15
353.993	38.19
354.212	59.42
354.431	15.7
354.65	113.93
354.869	57.54
355.088	53
355.306	59.86
355.525	58.08
355.744	83.01
355.962	64.9
356.181	67.4
356.4	30.03
356.618	84.27
356.837	28.43
357.055	69.64
357.274	44.76
357.492	65.4
357.711	73.01
357.929	32.6
358.148	65.11
358.366	13.7
358.585	44.16
358.803	41.1
359.021	86.95
359.24	59.98
359.458	55.69
359.676	42.08
359.894	70.04
360.113	50.26
360.331	35.36
360.549	57.4
360.767	45.2
360.985	44.68
361.203	45.97
361.421	29.11
361.639	34.94
361.857	54.58
362.075	9.86
362.293	66.68
362.511	19.66
362.729	71.8
362.947	80.18
363.165	36.87
363.383	33.4
363.601	39.65
363.819	38.07
364.036	79.67
364.254	47
364.472	61.67
364.689	45.78
364.907	65.94
365.125	47.49
365.342	48.17
365.56	57.16
365.778	89.67
365.995	48.28
366.213	41.72
366.43	31.72
366.648	36.36
366.865	58.19
367.083	22.19
367.3	29.09
367.517	64.04
367.735	33.02
367.952	47.76
368.17	70.83
368.387	44.85
368.604	35.32
368.821	65.82
369.039	39.25
369.256	78.21
369.473	45.22
369.69	46.12
369.907	80.33
370.124	84.17
370.341	20.17
370.558	55.75
370.776	49.96
370.993	36.54
371.21	131.58
371.426	34.48
371.643	55.61
371.86	52.33
372.077	76.65
372.294	40.66
372.511	67.24
372.728	49.17
372.945	33.9
373.161	60.71
373.378	65.25
373.595	58.39
373.811	36.42
374.028	48.51
374.245	75.67
374.461	66.83
374.678	70.74
374.895	48.68
375.111	73.26
375.328	44.48
375.544	73.63
375.761	81.53
375.977	33.07
376.194	46.81
376.41	67.35
376.626	90.95
376.843	33.52
377.059	56.39
377.275	33.8
377.492	41.33
377.708	23.07
377.924	32.41
378.14	52.72
378.357	21.7
378.573	77.42
378.789	41.22
379.005	57.35
379.221	45.61
379.437	63.98
379.653	85.24
379.869	55.02
380.085	61.71
380.301	82.94
380.517	52.07
380.733	49.14
380.949	75.29
381.165	56.38
381.381	71.33
381.597	54.5
381.813	53.73
382.028	66.43
382.244	52.51
382.46	72.1
382.676	60.39
382.891	56.75
383.107	58.19
383.323	74.21
383.538	66.74
383.754	63.15
383.969	67.76
384.185	68.52
384.4	73.68
384.616	57.31
384.831	56.29
385.047	58.53
385.262	71.45
385.478	68.02
385.693	51.85
385.909	53.91
386.124	81.71
386.339	60.39
386.554	53.36
386.77	40.94
386.985	46.63
387.2	91.97
387.415	79.94
387.631	44.05
387.846	50.41
388.061	81.24
388.276	75.17
388.491	72.72
388.706	68.62
388.921	59.65
389.136	69.45
389.351	55.31
389.566	69.41
389.781	82.13
389.996	57.17
390.211	77.47
390.426	77.34
390.641	71.44
390.855	54.54
391.07	70.49
391.285	69.01
391.5	67.5
391.714	61.49
391.929	63.85
392.144	70.53
392.358	72.89
392.573	70.98
392.788	70.4
393.002	61.82
393.217	86.12
393.431	70.75
393.646	65.91
393.86	67.63
394.075	89.84
394.289	75.64
394.504	74.64
394.718	82.5
394.933	67.15
395.147	85.92
395.361	74.96
395.576	92.44
395.79	77.72
396.004	90.42
396.218	82.58
396.432	74.59
396.647	74.36
396.861	77.68
397.075	82.72
397.289	82.14
397.503	81.51
397.717	84.13
397.931	87.63
398.145	81.18
398.359	80.82
398.573	83.16
398.787	84.28
399.001	87.05
399.215	83.05
399.429	93.18
399.643	85.49
399.857	93.09
400.07	80.81
400.284	83.05
400.498	84.81
400.712	93.47
400.925	86.72
401.139	87.89
401.353	86.74
401.566	89.47
401.78	85.42
401.994	89.93
402.207	86.37
402.421	89.22
402.634	83.76
402.848	87.79
403.061	85.01
403.275	88.68
403.488	95.22
403.702	87.15
403.915	90.9
404.128	90.36
404.342	86.28
404.555	88.73
404.768	92.79
404.982	92.88
405.195	86.4
405.408	88.12
405.621	92.4
405.835	93.86
406.048	94.74
406.261	95.81
406.474	92.82
406.687	94.71
406.9	94.1
407.113	86.07
407.326	88.57
407.539	92.04
407.752	91.53
407.965	89.08
408.178	92.01
408.391	91.12
408.604	90.32
408.817	92.47
409.029	91.97
409.242	88.38
409.455	92.83
409.668	90.77
409.881	87.84
410.093	90.57
410.306	87.91
410.519	88.22
410.731	87.33
410.944	86.81
411.157	87.59
411.369	85.77
411.582	91.34
411.794	86.47
412.007	82.39
412.219	84.7
412.432	85.36
412.644	83.66
412.857	82.18
413.069	83.08
413.281	81.98
413.494	80.42
413.706	81.71
413.918	80.03
414.131	82.38
414.343	81.35
414.555	79.73
414.767	81.45
414.979	78.8
415.192	77.78
415.404	75.94
415.616	75.05
415.828	74.08
416.04	75.33
416.252	71.29
416.464	70.74
416.676	70.97
416.888	69
417.1	70.41
417.312	68.32
417.524	67.29
417.736	67.76
417.948	67.69
418.159	66.05
418.371	65.61
418.583	64.76
418.795	63.33
419.007	61.88
419.218	60.66
419.43	60.95
419.642	60.49
419.853	60.84
420.065	60.65
420.276	59.02
420.488	58.48
420.7	54.93
420.911	56.4
421.123	54.3
421.334	52.92
421.546	51.85
421.757	51.77
421.969	50.86
422.18	49.25
422.391	51.16
422.603	49
422.814	48.71
423.025	47.9
423.237	47.12
423.448	46.51
423.659	47.38
423.87	45.78
424.082	43.63
424.293	44
424.504	42.22
424.715	42.69
424.926	42.3
425.137	40.62
425.348	40.65
425.559	40.26
425.77	39.44
425.981	38.76
426.192	37.77
426.403	39.11
426.614	37.75
426.825	36.54
427.036	36.3
427.247	35.51
427.458	34.6
427.668	36.05
427.879	32.43
428.09	34.67
428.301	34.56
428.511	33.29
428.722	32.06
428.933	31.48
429.143	30.7
429.354	31.2
429.565	31.97
429.775	29.88
429.986	31.16
430.196	29.51
430.407	27.85
430.617	27.86
430.828	28.49
431.038	29.07
431.249	27.02
431.459	27.58
431.669	27.63
431.88	26.03
432.09	25.91
432.3	26.48
432.511	25.62
432.721	24.16
432.931	24.45
433.141	25.18
433.351	25.38
433.562	23.19
433.772	24.05
433.982	23.29
434.192	22.48
434.402	23.55
434.612	22.49
434.822	21.9
435.032	22.72
435.242	21.13
435.452	20.67
435.662	21.71
435.872	20.46
436.082	19.96
436.292	20.36
436.502	21.99
436.711	19.2
436.921	19.91
437.131	19.88
437.341	20.15
437.551	18.38
437.76	18.93
437.97	18.88
438.18	19.2
438.389	18.45
438.599	19.07
438.808	18.03
439.018	18.68
439.228	17.83
439.437	17.33
439.647	17.05
439.856	17.87
440.066	17.92
440.275	18.08
440.484	17.17
440.694	16.25
440.903	16.63
441.113	16.89
441.322	15.69
441.531	16.61
441.741	17.71
441.95	16.06
442.159	16.06
442.368	16.84
442.577	16.19
442.787	14.78
442.996	14.88
443.205	16.16
443.414	14.01
443.623	14.51
443.832	15.29
444.041	14.78
444.25	15.99
444.459	14.25
444.668	13.2
444.877	14.05
445.086	14.29
445.295	14.97
445.504	14.45
445.713	15.19
445.922	14.37
446.13	12.99
446.339	13.58
446.548	15.3
446.757	14.43
446.965	13.79
447.174	13.04
447.383	13.97
447.591	14.11
447.8	13.38
448.009	12.46
448.217	12.78
448.426	13.31
448.634	12.47
448.843	12.8
449.051	13.1
449.26	13.35
449.468	13.09
449.677	13.12
449.885	12.62
450.093	13.8
450.302	13.78
450.51	13.3
450.719	14.03
450.927	12.18
451.135	12.19
451.343	12.33
451.552	12.65
451.76	13.19
451.968	11.62
452.176	12.67
452.384	12.35
452.592	12.86
452.8	12.07
453.009	12.45
453.217	11.88
453.425	12.38
453.633	13.15
453.841	10.41
454.049	11.78
454.257	12.38
454.464	13.53
454.672	12.32
454.88	10.79
455.088	10.87
455.296	12.09
455.504	10.01
455.711	11.72
455.919	11.88
456.127	11.42
456.335	11.93
456.542	10.55
456.75	11.78
456.958	13.03
457.165	11.32
457.373	11.53
457.581	11.39
457.788	12.13
457.996	11.6
458.203	10.89
458.411	10.76
458.618	12.35
458.826	12.86
459.033	10.59
459.24	11.18
459.448	10.93
459.655	11.64
459.863	11.4
460.07	10.55
460.277	11.73
460.484	11.56
460.692	11.76
460.899	12.02
461.106	12.52
461.313	11.55
461.52	10.41
461.728	10.54
461.935	10.66
462.142	11.7
462.349	10.65
462.556	12.79
462.763	10.96
462.97	11.91
463.177	11.92
463.384	11.62
463.591	12.02
463.798	11.02
464.005	11.45
464.212	11.5
464.418	10.19
464.625	11.55
464.832	11.08
465.039	11.36
465.246	11.14
465.452	11.27
465.659	10.71
465.866	11.37
466.072	11.72
466.279	10.48
466.486	10.58
466.692	11.54
466.899	11.73
467.105	11.34
467.312	10.92
467.519	11.48
467.725	10.51
467.931	11.15
468.138	12.07
468.344	11.48
468.551	11.14
468.757	12.04
