Data from 2019-05-04_Transmission_20-17-04-848.txt Node
Date: Sat May 04 20:17:04 EDT 2019
User: dh1006
Spectrometer: USB4E01358
Autoset integration time: false
Trigger mode: 4
Integration Time (sec): 1.000000E-1
Scans to average: 10
Electric dark correction enabled: true
Nonlinearity correction enabled: false
Boxcar width: 0
Stray light correction enabled: false
XAxis mode: Wavelengths
Stop averaging: false
Number of Pixels in Spectrum: 3648
>>>>>Begin Spectral Data<<<<<
176.727	157.69
176.966	157.69
177.205	157.69
177.444	149.04
177.683	-117.71
177.922	-74.64
178.161	-29.73
178.4	504.04
178.638	-4.34
178.877	1019.23
179.116	204.82
179.355	39.15
179.593	95.36
179.832	37.18
180.071	1.07
180.309	23.21
180.548	216.96
180.786	200.69
181.025	64.14
181.263	85
181.502	78.68
181.74	60.42
181.979	156.58
182.217	94.45
182.456	39.11
182.694	24.47
182.932	27.69
183.17	61.59
183.409	45.56
183.647	30.6
183.885	66.36
184.123	55.94
184.361	136.18
184.6	98.96
184.838	49.14
185.076	80.43
185.314	61.51
185.552	72.22
185.79	69.04
186.028	102.31
186.266	77.62
186.503	68.02
186.741	62.62
186.979	29.16
187.217	52.71
187.455	46.69
187.693	94.31
187.93	81.09
188.168	50.7
188.406	59.66
188.643	61.56
188.881	110.87
189.119	80.79
189.356	45.4
189.594	52.16
189.831	59.57
190.069	82.77
190.306	44.63
190.543	30.39
190.781	62.54
191.018	71.63
191.256	74.61
191.493	77.24
191.73	58.32
191.967	60.54
192.205	67.35
192.442	48.49
192.679	99.84
192.916	102.4
193.153	69.5
193.39	76.46
193.628	92.31
193.865	87.23
194.102	49.85
194.339	81.69
194.576	40.41
194.813	82.86
195.049	39.67
195.286	55.98
195.523	56.93
195.76	52.99
195.997	118.72
196.234	58.66
196.47	61.95
196.707	61.18
196.944	92.99
197.18	79.65
197.417	60.85
197.654	50.77
197.89	65.11
198.127	94.45
198.363	59.64
198.6	88.76
198.836	77.08
199.073	62.28
199.309	37.52
199.546	42.69
199.782	20.72
200.018	100.27
200.255	42.39
200.491	81.67
200.727	79.5
200.963	62.95
201.199	85.86
201.436	110.5
201.672	65.22
201.908	41.83
202.144	16.58
202.38	48.37
202.616	43.11
202.852	69.8
203.088	56.75
203.324	79.95
203.56	54.4
203.796	48.53
204.032	79.19
204.268	78.07
204.503	62.64
204.739	63.21
204.975	52.74
205.211	53.76
205.446	120.9
205.682	63.33
205.918	36.03
206.153	34.85
206.389	45.86
206.625	98.05
206.86	44.1
207.096	88.61
207.331	67.91
207.567	92.94
207.802	44.38
208.037	88.91
208.273	91.7
208.508	74.73
208.744	91.55
208.979	68.33
209.214	109.65
209.449	49.7
209.685	85.73
209.92	75.4
210.155	64.01
210.39	74.09
210.625	74.68
210.86	61.67
211.095	77.16
211.33	104.72
211.565	53.87
211.8	71.3
212.035	108.35
212.27	47.11
212.505	56.54
212.74	81.01
212.975	45.27
213.21	61.11
213.444	80.94
213.679	76.02
213.914	93.65
214.149	39.36
214.383	81.36
214.618	70.13
214.853	91.44
215.087	32.77
215.322	69.85
215.556	100.86
215.791	93.67
216.025	92.4
216.26	81.2
216.494	84.64
216.729	38.08
216.963	90.43
217.197	53.85
217.432	64.31
217.666	31.04
217.9	68.51
218.135	40.9
218.369	55.27
218.603	47.47
218.837	51.65
219.071	59.41
219.306	84.79
219.54	54.48
219.774	72.84
220.008	81.98
220.242	86.29
220.476	56.08
220.71	62.61
220.944	84.71
221.178	79.68
221.411	10.08
221.645	94.66
221.879	49.42
222.113	95.27
222.347	88.98
222.58	70.8
222.814	46.49
223.048	80.54
223.281	58.46
223.515	42.02
223.749	60.51
223.982	71.93
224.216	41.58
224.449	29
224.683	87.78
224.916	88.56
225.15	79.5
225.383	159.4
225.617	83.32
225.85	54.26
226.083	105.91
226.317	20.47
226.55	-1.64
226.783	80.33
227.016	73.32
227.25	80.34
227.483	69.61
227.716	57.6
227.949	18.89
228.182	72.74
228.415	52.28
228.648	70.87
228.881	101.84
229.114	120.89
229.347	59.15
229.58	54.38
229.813	54.7
230.046	26.61
230.279	66.35
230.512	44.71
230.745	37.85
230.977	57.24
231.21	56.88
231.443	57.29
231.675	58.13
231.908	70.51
232.141	82.88
232.373	58.31
232.606	54.05
232.839	73.11
233.071	52.95
233.304	61.17
233.536	70.8
233.769	80.68
234.001	107.96
234.233	89.78
234.466	72.92
234.698	84.5
234.93	57.63
235.163	85.44
235.395	45.79
235.627	73.77
235.86	70.15
236.092	48.76
236.324	61.52
236.556	43.63
236.788	50.44
237.02	51.7
237.252	69.7
237.484	51.86
237.716	83.32
237.948	65.38
238.18	127.45
238.412	36.23
238.644	41.99
238.876	36.98
239.108	63.13
239.34	57.39
239.571	68.35
239.803	83.37
240.035	60.05
240.267	69.87
240.498	68.43
240.73	64.55
240.962	113.6
241.193	60.46
241.425	37.43
241.656	64
241.888	72.62
242.119	84.62
242.351	65.22
242.582	56.56
242.814	61.8
243.045	74.45
243.277	47.73
243.508	54.26
243.739	86.9
243.971	43.3
244.202	61.65
244.433	63.13
244.664	75.04
244.896	27.22
245.127	47.34
245.358	81.33
245.589	66.07
245.82	-3.5
246.051	62.92
246.282	52.84
246.513	76.68
246.744	50.97
246.975	99.4
247.206	95.61
247.437	48.16
247.668	68.21
247.899	73.63
248.129	54.83
248.36	88.41
248.591	95.43
248.822	40.24
249.052	69.46
249.283	120.27
249.514	50.89
249.744	72.82
249.975	91.94
250.206	69.87
250.436	56.18
250.667	69.7
250.897	67.38
251.128	36.78
251.358	67.65
251.589	74.62
251.819	48.42
252.049	91.99
252.28	86.73
252.51	33.97
252.74	61.26
252.971	44.87
253.201	96.89
253.431	76.92
253.661	12.78
253.891	77.3
254.121	87.17
254.352	69.71
254.582	71.52
254.812	93.52
255.042	109.88
255.272	38.38
255.502	67.26
255.732	86.8
255.962	83.55
256.192	42.2
256.421	62.6
256.651	67.24
256.881	56.68
257.111	23.88
257.341	58.98
257.57	80.75
257.8	78.56
258.03	94.59
258.259	61.54
258.489	47.6
258.719	55.32
258.948	76.82
259.178	66.37
259.407	48.66
259.637	80.6
259.866	65.6
260.096	50.55
260.325	56.05
260.555	48.25
260.784	72.72
261.013	30.66
261.243	47.84
261.472	83.24
261.701	67.69
261.931	47.86
262.16	72.72
262.389	99.84
262.618	53.54
262.847	93.61
263.076	51.14
263.305	73.69
263.535	46.88
263.764	91.06
263.993	56.04
264.222	68.12
264.451	68.77
264.679	49.05
264.908	80.26
265.137	78.68
265.366	45.39
265.595	45.83
265.824	43.1
266.053	59.62
266.281	41.34
266.51	56.71
266.739	61.23
266.967	55.22
267.196	80.84
267.425	83.75
267.653	66.22
267.882	65.38
268.11	63.57
268.339	48.67
268.567	65.28
268.796	68.16
269.024	50.97
269.253	78
269.481	73.96
269.709	77.34
269.938	33.5
270.166	56.68
270.394	69.76
270.623	63.21
270.851	26.87
271.079	75.9
271.307	46.59
271.535	43.7
271.764	55.45
271.992	23.24
272.22	49.52
272.448	45.7
272.676	58.87
272.904	23.36
273.132	71.29
273.36	46.59
273.588	67.63
273.816	65.22
274.043	70.52
274.271	68.04
274.499	95.13
274.727	84.11
274.955	70.21
275.182	61.9
275.41	62.99
275.638	48.35
275.866	53.59
276.093	63.07
276.321	63.82
276.548	31.29
276.776	63.22
277.003	51.43
277.231	45.61
277.458	37.4
277.686	82.99
277.913	56.57
278.141	58.7
278.368	68.18
278.595	54.5
278.823	65.85
279.05	44.1
279.277	49.39
279.505	59.06
279.732	22.49
279.959	67.18
280.186	62.37
280.413	61.16
280.641	66.51
280.868	65.72
281.095	54.16
281.322	52.67
281.549	67.89
281.776	80.54
282.003	73.34
282.23	67.67
282.457	71.59
282.683	38.99
282.91	62.07
283.137	64.5
283.364	84.41
283.591	120.18
283.818	59.14
284.044	56.72
284.271	62.39
284.498	71.4
284.724	48.38
284.951	41.52
285.178	68.86
285.404	56.76
285.631	100.93
285.857	76.92
286.084	26.1
286.31	80.53
286.537	75.17
286.763	40.04
286.99	66.81
287.216	87.07
287.442	49.9
287.669	43.54
287.895	51.13
288.121	57.26
288.347	70.87
288.574	91.21
288.8	37.26
289.026	30.74
289.252	42.2
289.478	62.79
289.704	57.48
289.931	67.78
290.157	84.29
290.383	77.09
290.609	70.22
290.835	42.37
291.06	47.67
291.286	89.31
291.512	34.03
291.738	67.03
291.964	52.76
292.19	43.29
292.416	64.92
292.641	58.51
292.867	41.45
293.093	50.99
293.319	68.46
293.544	57.99
293.77	35.72
293.995	73.11
294.221	82.73
294.447	51.97
294.672	61.98
294.898	67.58
295.123	66.13
295.349	51.91
295.574	4.43
295.799	57.71
296.025	69.92
296.25	57.02
296.476	53.35
296.701	90.78
296.926	34.76
297.151	65.58
297.377	58.13
297.602	61.73
297.827	41.54
298.052	56.72
298.277	32.79
298.502	68.4
298.727	42.23
298.953	76
299.178	89.74
299.403	39.64
299.628	102.83
299.852	63.83
300.077	43.83
300.302	75.87
300.527	31.17
300.752	52.73
300.977	57.22
301.202	44.89
301.426	48.15
301.651	28.99
301.876	74.66
302.101	79.78
302.325	47.38
302.55	65.93
302.775	36.86
302.999	61.87
303.224	78.02
303.448	72.8
303.673	72.32
303.897	89.28
304.122	45.18
304.346	58.7
304.571	41.78
304.795	67.62
305.019	71.88
305.244	18.24
305.468	61.09
305.692	48.89
305.917	45.45
306.141	52.24
306.365	31.63
306.589	65.74
306.813	86.87
307.038	79.09
307.262	68.04
307.486	57.49
307.71	75.95
307.934	46.99
308.158	62.5
308.382	42.5
308.606	72.59
308.83	74.45
309.054	47.36
309.278	72.26
309.502	47.66
309.725	22.28
309.949	56.92
310.173	80.99
310.397	59.59
310.62	62.66
310.844	62.66
311.068	52.12
311.292	59.12
311.515	37.37
311.739	53.46
311.962	53.81
312.186	73.71
312.41	56.06
312.633	67.68
312.857	54.01
313.08	24.82
313.303	42.45
313.527	60.98
313.75	66.14
313.974	62.84
314.197	65.76
314.42	69.49
314.644	58.91
314.867	46.82
315.09	24.56
315.313	80.85
315.536	54.02
315.76	32.47
315.983	21.48
316.206	41.51
316.429	51.46
316.652	39.17
316.875	70.97
317.098	64.89
317.321	56.14
317.544	59.02
317.767	67.04
317.99	73.75
318.213	64.04
318.436	68.62
318.658	85.31
318.881	29.62
319.104	56.37
319.327	70.52
319.55	70.46
319.772	0.73
319.995	30.14
320.218	97.41
320.44	36.18
320.663	69.8
320.885	32.65
321.108	52.59
321.331	53.6
321.553	53.18
321.776	83.68
321.998	71.3
322.22	71.3
322.443	58.08
322.665	56.46
322.888	41.03
323.11	50.6
323.332	60.82
323.555	52.29
323.777	97.66
323.999	42.39
324.221	61.96
324.443	54.88
324.666	91.93
324.888	61.21
325.11	51.58
325.332	39.08
325.554	48.18
325.776	60.05
325.998	51.95
326.22	43.2
326.442	86.28
326.664	38.49
326.886	42.65
327.108	39.23
327.33	50.24
327.551	50.27
327.773	81.95
327.995	80.52
328.217	41.04
328.439	37.99
328.66	76.68
328.882	70.89
329.104	80.34
329.325	48.32
329.547	55.33
329.769	74.86
329.99	38.08
330.212	61.54
330.433	75.77
330.655	32.51
330.876	57.8
331.098	57.15
331.319	57.51
331.54	65.04
331.762	78.75
331.983	52.36
332.204	101.4
332.426	30.96
332.647	47.35
332.868	48.98
333.089	52.47
333.311	59.34
333.532	58.57
333.753	78.37
333.974	86.97
334.195	64.14
334.416	63.82
334.637	42.65
334.858	41.8
335.079	57.76
335.3	54.35
335.521	48.55
335.742	73.57
335.963	67.77
336.184	19.22
336.405	52.92
336.626	35.38
336.846	62.72
337.067	54.12
337.288	53.54
337.509	67.19
337.729	59.36
337.95	43.56
338.171	68.1
338.391	61.31
338.612	38.13
338.833	46.02
339.053	77.98
339.274	80.91
339.494	41.14
339.715	48.01
339.935	85.94
340.156	56.63
340.376	54.74
340.596	61.69
340.817	77.29
341.037	54.29
341.257	96.31
341.478	64.91
341.698	78.33
341.918	66.24
342.138	31.56
342.359	58.34
342.579	66.48
342.799	39.92
343.019	55.07
343.239	58.06
343.459	36.61
343.679	64.56
343.899	83.45
344.119	65.98
344.339	65.09
344.559	70.99
344.779	50.87
344.999	42.81
345.219	71.71
345.439	87.36
345.658	90.35
345.878	70.76
346.098	48.86
346.318	33.06
346.537	50.28
346.757	73.34
346.977	64.89
347.196	51.61
347.416	70.24
347.636	38.99
347.855	37.94
348.075	35.03
348.294	53.69
348.514	84.71
348.733	83.36
348.953	67.39
349.172	72.29
349.392	85.72
349.611	47.21
349.83	61.26
350.05	53.85
350.269	83.53
350.488	65.55
350.707	56.39
350.927	51.25
351.146	80.57
351.365	53.53
351.584	26.52
351.803	66.72
352.023	52.7
352.242	52.31
352.461	86.32
352.68	71.11
352.899	94.4
353.118	55.68
353.337	46.12
353.556	64.2
353.775	65.6
353.993	64.5
354.212	47.85
354.431	70.42
354.65	81.25
354.869	38.38
355.088	69.53
355.306	68.84
355.525	43.15
355.744	43.62
355.962	79.43
356.181	62.38
356.4	67.84
356.618	62.64
356.837	53.9
357.055	-5.39
357.274	73.87
357.492	60.64
357.711	59.44
357.929	65.56
358.148	73.51
358.366	-4.59
358.585	50.85
358.803	45.65
359.021	54.29
359.24	62.47
359.458	54.92
359.676	65.39
359.894	95.52
360.113	54.52
360.331	51.72
360.549	56
360.767	50.86
360.985	55.4
361.203	75.87
361.421	56
361.639	50.39
361.857	62.6
362.075	41.15
362.293	52.6
362.511	38.05
362.729	71.99
362.947	57.4
363.165	86.88
363.383	33.1
363.601	82.53
363.819	60.25
364.036	88.66
364.254	71.45
364.472	63.17
364.689	68.76
364.907	54.6
365.125	31.2
365.342	74.7
365.56	49.34
365.778	52.44
365.995	54.97
366.213	75.11
366.43	67.76
366.648	52.89
366.865	33.46
367.083	84.37
367.3	82.14
367.517	72.77
367.735	46.99
367.952	43.25
368.17	81.57
368.387	71.45
368.604	37.24
368.821	47.82
369.039	47.95
369.256	91.56
369.473	60.95
369.69	54.67
369.907	36.72
370.124	64.7
370.341	67.2
370.558	67.62
370.776	54.45
370.993	75.09
371.21	51.76
371.426	55.11
371.643	42.36
371.86	70.24
372.077	62.37
372.294	89.72
372.511	49.19
372.728	87.38
372.945	57.9
373.161	59.26
373.378	46.28
373.595	73.64
373.811	77.3
374.028	59.69
374.245	25.44
374.461	67.97
374.678	49.52
374.895	68.52
375.111	43.79
375.328	67.55
375.544	51.71
375.761	70.36
375.977	59.2
376.194	83.87
376.41	44.48
376.626	65.62
376.843	58.92
377.059	44.67
377.275	53.7
377.492	30.18
377.708	61.18
377.924	60.75
378.14	64.29
378.357	47.17
378.573	69.82
378.789	46.02
379.005	69.02
379.221	74.98
379.437	29.49
379.653	69.17
379.869	64.78
380.085	64.53
380.301	70.33
380.517	94.02
380.733	60.32
380.949	70.69
381.165	44.89
381.381	61.9
381.597	58.97
381.813	81.19
382.028	70.41
382.244	63.11
382.46	53.62
382.676	67.43
382.891	51.06
383.107	60.15
383.323	64.3
383.538	55.05
383.754	42.66
383.969	57.71
384.185	59.24
384.4	62.3
384.616	63.02
384.831	66.56
385.047	66.71
385.262	63.27
385.478	77.95
385.693	75.26
385.909	67.07
386.124	79.48
386.339	66.52
386.554	82.17
386.77	63.23
386.985	79.45
387.2	64.95
387.415	73.19
387.631	64.45
387.846	59.58
388.061	62.98
388.276	64.82
388.491	76.33
388.706	69.52
388.921	76.1
389.136	79.63
389.351	59.69
389.566	70.48
389.781	54.72
389.996	77.3
390.211	70.99
390.426	79.64
390.641	71.83
390.855	68.68
391.07	89.5
391.285	76.53
391.5	80.69
391.714	74.12
391.929	82.16
392.144	81.96
392.358	70.28
392.573	81.13
392.788	84.14
393.002	80.94
393.217	75.61
393.431	63.34
393.646	69.46
393.86	87.84
394.075	81.15
394.289	82.27
394.504	92.04
394.718	76.18
394.933	90.36
395.147	76.87
395.361	84.54
395.576	77.92
395.79	81.52
396.004	88.28
396.218	88.94
396.432	84.87
396.647	75.56
396.861	84.15
397.075	89.36
397.289	86.09
397.503	81.26
397.717	87.63
397.931	85.52
398.145	89.78
398.359	82.7
398.573	80.38
398.787	84.93
399.001	90.35
399.215	83.9
399.429	91.4
399.643	88.81
399.857	94.72
400.07	88.19
400.284	92.23
400.498	87.94
400.712	95.94
400.925	97.9
401.139	87.01
401.353	89.82
401.566	86.99
401.78	91.51
401.994	92.99
402.207	88.65
402.421	88.23
402.634	88.41
402.848	90.18
403.061	90.94
403.275	90.74
403.488	91.89
403.702	97.26
403.915	91.32
404.128	94.84
404.342	94.56
404.555	96.92
404.768	99.92
404.982	93.26
405.195	89.37
405.408	92.14
405.621	94.06
405.835	93.52
406.048	95.78
406.261	90.25
406.474	96.24
406.687	93.03
406.9	97.64
407.113	96.66
407.326	98.45
407.539	96.11
407.752	92.78
407.965	93.35
408.178	95.15
408.391	94.28
408.604	96.75
408.817	97.04
409.029	99.53
409.242	99.32
409.455	92.6
409.668	95.74
409.881	97.41
410.093	93.98
410.306	93.57
410.519	95.58
410.731	95.22
410.944	94.24
411.157	92.4
411.369	90.1
411.582	92.47
411.794	92.18
412.007	90.25
412.219	93.41
412.432	89.44
412.644	89.89
412.857	88.31
413.069	88.82
413.281	91.85
413.494	90.08
413.706	88.02
413.918	86.7
414.131	86.12
414.343	84.77
414.555	82.65
414.767	84.62
414.979	82.68
415.192	82.56
415.404	83.02
415.616	80.9
415.828	81.58
416.04	80.46
416.252	81.76
416.464	79.62
416.676	77.62
416.888	78.14
417.1	77.13
417.312	77.66
417.524	74.95
417.736	73.76
417.948	72.89
418.159	73.41
418.371	72.07
418.583	72.37
418.795	70.52
419.007	70.9
419.218	68.33
419.43	69.42
419.642	68.73
419.853	64.86
420.065	67.21
420.276	67.58
420.488	62.29
420.7	63.99
420.911	62.41
421.123	62.06
421.334	61.81
421.546	59.19
421.757	58.86
421.969	57.65
422.18	56.81
422.391	56.28
422.603	56.55
422.814	55.68
423.025	55.62
423.237	54.02
423.448	52.64
423.659	52.87
423.87	51.65
424.082	50.07
424.293	49.26
424.504	50.91
424.715	48.09
424.926	46.55
425.137	46.71
425.348	47.69
425.559	45.65
425.77	45.37
425.981	43.81
426.192	45.36
426.403	43.66
426.614	41.98
426.825	42.62
427.036	41.86
427.247	42.45
427.458	40.85
427.668	39.61
427.879	39.33
428.09	39.31
428.301	38.38
428.511	37.65
428.722	36.26
428.933	36.06
429.143	36.98
429.354	36.09
429.565	35.73
429.775	35.15
429.986	34.32
430.196	31.94
430.407	33.82
430.617	31.94
430.828	33.19
431.038	31.64
431.249	31.63
431.459	31.13
431.669	31.17
431.88	31.34
432.09	30.34
432.3	29.78
432.511	28.55
432.721	28.76
432.931	28.29
433.141	29.19
433.351	28.65
433.562	27.45
433.772	27.32
433.982	26.55
434.192	25.77
434.402	26.98
434.612	25.6
434.822	25.15
435.032	23.79
435.242	26.05
435.452	22.98
435.662	23.53
435.872	24.21
436.082	25.89
436.292	23.5
436.502	23
436.711	23.05
436.921	22.86
437.131	21.62
437.341	21.91
437.551	20.56
437.76	21.87
437.97	20.86
438.18	21.7
438.389	21.49
438.599	21.11
438.808	21.35
439.018	20.39
439.228	20.06
439.437	19.6
439.647	19.94
439.856	19.99
440.066	19.96
440.275	19.52
440.484	17.92
440.694	19.08
440.903	17.78
441.113	19.62
441.322	17.24
441.531	18.91
441.741	19.06
441.95	18.21
442.159	17.18
442.368	18.4
442.577	18.55
442.787	18.2
442.996	16.67
443.205	18.46
443.414	17.2
443.623	17.83
443.832	18.79
444.041	16.95
444.25	17.38
444.459	16.67
444.668	16.37
444.877	16.51
445.086	16.18
445.295	16.25
445.504	16.14
445.713	16.38
445.922	16.58
446.13	17.13
446.339	15.84
446.548	15.05
446.757	16.71
446.965	15.73
447.174	16.2
447.383	15.99
447.591	14.99
447.8	14.65
448.009	16.75
448.217	16.59
448.426	15.72
448.634	13.67
448.843	14.19
449.051	14.21
449.26	14.73
449.468	14.21
449.677	14.99
449.885	14.2
450.093	13.04
450.302	14.31
450.51	14.93
450.719	14.28
450.927	15.76
451.135	14.89
451.343	14.52
451.552	14.02
451.76	13.79
451.968	14.51
452.176	13.7
452.384	13.62
452.592	14.49
452.8	13.63
453.009	13.83
453.217	14.25
453.425	15.33
453.633	13.99
453.841	12.67
454.049	13.12
454.257	14.64
454.464	14.9
454.672	12.84
454.88	12.93
455.088	12.71
455.296	12.93
455.504	12.45
455.711	13.98
455.919	13.45
456.127	15.55
456.335	12.57
456.542	12.47
456.75	12.94
456.958	14.2
457.165	12.06
457.373	13.74
457.581	12.86
457.788	13.96
457.996	13.11
458.203	13.5
458.411	12.09
458.618	13.29
458.826	12.43
459.033	12.17
459.24	12.47
459.448	12.83
459.655	13.49
459.863	12.61
460.07	13.46
460.277	12.86
460.484	12.89
460.692	11.43
460.899	11.67
461.106	11.9
461.313	12.47
461.52	12.16
461.728	13.38
461.935	12.23
462.142	12.98
462.349	11.77
462.556	12.62
462.763	12.93
462.97	13.17
463.177	12.73
463.384	12.82
463.591	11.3
463.798	12.6
464.005	12.11
464.212	11.54
464.418	12.91
464.625	11.49
464.832	12.36
465.039	12.52
465.246	13.6
465.452	13.2
465.659	11.97
465.866	13.11
466.072	12.85
466.279	11.81
466.486	11.16
466.692	13.17
466.899	12.52
467.105	13.29
467.312	11.54
467.519	12.56
467.725	12.22
467.931	13.34
468.138	11.92
468.344	12.18
468.551	12.72
468.757	10.95
468.964	12.52
469.17	12.26
469.376	11.48
