Data from 2019-05-04_Transmission_20-17-24-645.txt Node
Date: Sat May 04 20:17:24 EDT 2019
User: dh1006
Spectrometer: USB4E01358
Autoset integration time: false
Trigger mode: 4
Integration Time (sec): 1.000000E-1
Scans to average: 10
Electric dark correction enabled: true
Nonlinearity correction enabled: false
Boxcar width: 0
Stray light correction enabled: false
XAxis mode: Wavelengths
Stop averaging: false
Number of Pixels in Spectrum: 3648
>>>>>Begin Spectral Data<<<<<
176.727	70.45
176.966	70.45
177.205	70.45
177.444	-137.5
177.683	-107.55
177.922	-20.79
178.161	20.9
178.4	615
178.638	56.41
178.877	4450
179.116	42.67
179.355	186.67
179.593	44.63
179.832	-16.67
180.071	108.33
180.309	83.19
180.548	-15.38
180.786	182.14
181.025	85.34
181.263	69.94
181.502	62.03
181.74	61.2
181.979	95.27
182.217	104.15
182.456	63.9
182.694	74.88
182.932	56.56
183.17	45.3
183.409	71.84
183.647	45.25
183.885	77.25
184.123	74.23
184.361	61.33
184.6	95.72
184.838	40.58
185.076	67.93
185.314	85.37
185.552	71.86
185.79	148.39
186.028	107.5
186.266	41.56
186.503	47.37
186.741	83.99
186.979	82.83
187.217	62.96
187.455	54.32
187.693	84.03
187.93	50.11
188.168	48.93
188.406	67.58
188.643	85.75
188.881	122.05
189.119	77.88
189.356	69.38
189.594	72.64
189.831	104.36
190.069	109.09
190.306	61.37
190.543	75.37
190.781	74
191.018	77.74
191.256	85.39
191.493	73.27
191.73	33.45
191.967	57.95
192.205	57.03
192.442	146.6
192.679	57.74
192.916	87.5
193.153	57.91
193.39	78.38
193.628	71.83
193.865	69.14
194.102	84.92
194.339	87.99
194.576	50.26
194.813	106.7
195.049	59.67
195.286	69.12
195.523	74.56
195.76	68.4
195.997	69.59
196.234	73.97
196.47	84.64
196.707	70.38
196.944	136.65
197.18	65.98
197.417	92.49
197.654	26.37
197.89	45.51
198.127	100
198.363	14.02
198.6	27.08
198.836	61.38
199.073	63.89
199.309	65.17
199.546	92.65
199.782	87.76
200.018	124.12
200.255	37
200.491	113.58
200.727	91.64
200.963	94.89
201.199	110.9
201.436	106.22
201.672	103.63
201.908	38.8
202.144	42.04
202.38	73.05
202.616	106.53
202.852	98.31
203.088	79.37
203.324	86.27
203.56	64.16
203.796	69.07
204.032	80.31
204.268	65.76
204.503	85.92
204.739	55.16
204.975	70.36
205.211	88.25
205.446	47.93
205.682	89.37
205.918	65.25
206.153	46.54
206.389	64.41
206.625	100
206.86	82.51
207.096	65.87
207.331	88.21
207.567	122.48
207.802	43.36
208.037	62.8
208.273	60.93
208.508	68.79
208.744	95.82
208.979	64.72
209.214	78.7
209.449	113.85
209.685	83.58
209.92	59.07
210.155	41.41
210.39	81.13
210.625	45.83
210.86	76.74
211.095	73.39
211.33	89.89
211.565	109
211.8	54.08
212.035	74.17
212.27	14.29
212.505	45
212.74	68.9
212.975	65.65
213.21	82.75
213.444	93.48
213.679	72.73
213.914	70.53
214.149	127.51
214.383	130.25
214.618	55.43
214.853	79.69
215.087	57.98
215.322	33.55
215.556	35.11
215.791	102.06
216.025	90.75
216.26	63.9
216.494	106.32
216.729	60.84
216.963	82.81
217.197	73.91
217.432	58
217.666	47.18
217.9	88.83
218.135	27.48
218.369	67.47
218.603	86.59
218.837	79.25
219.071	83.88
219.306	91.8
219.54	76.61
219.774	72.96
220.008	102.82
220.242	60.21
220.476	46.73
220.71	79.41
220.944	72.69
221.178	59.29
221.411	78.03
221.645	47.23
221.879	60.55
222.113	92
222.347	90.76
222.58	109.81
222.814	64.81
223.048	112.8
223.281	61.69
223.515	60.47
223.749	82.68
223.982	78.63
224.216	62.03
224.449	100
224.683	98.87
224.916	79.51
225.15	90.68
225.383	104.55
225.617	89.95
225.85	76.69
226.083	100.34
226.317	76.41
226.55	116.55
226.783	90.63
227.016	59.14
227.25	85.44
227.483	106.42
227.716	96.34
227.949	86.57
228.182	84.13
228.415	55.45
228.648	50.68
228.881	70.28
229.114	88.56
229.347	65.11
229.58	99.42
229.813	75.95
230.046	18.81
230.279	104.34
230.512	98.88
230.745	45.33
230.977	71.47
231.21	53.63
231.443	57.87
231.675	67.31
231.908	83.56
232.141	85.9
232.373	72.46
232.606	48.18
232.839	73.65
233.071	79.25
233.304	74.37
233.536	54.95
233.769	57.32
234.001	93.48
234.233	88.89
234.466	68.56
234.698	79.08
234.93	91.71
235.163	62.84
235.395	116.67
235.627	119.38
235.86	128.87
236.092	85.66
236.324	72.51
236.556	26.39
236.788	94.23
237.02	76.74
237.252	64.21
237.484	56.36
237.716	116.82
237.948	74.75
238.18	122.18
238.412	63.66
238.644	68.95
238.876	32.58
239.108	85.58
239.34	89.44
239.571	84.22
239.803	80.29
240.035	79.47
240.267	56.55
240.498	79.87
240.73	79.16
240.962	85.61
241.193	69.85
241.425	44.11
241.656	41.79
241.888	99.2
242.119	95.06
242.351	85.96
242.582	77.46
242.814	55.74
243.045	81.25
243.277	20.46
243.508	66.92
243.739	119.94
243.971	38.61
244.202	68.78
244.433	84.89
244.664	111.24
244.896	55.89
245.127	54.91
245.358	78.67
245.589	88.73
245.82	66.88
246.051	70.59
246.282	45.52
246.513	71.07
246.744	56.16
246.975	86.9
247.206	83.03
247.437	95.77
247.668	60.37
247.899	86.05
248.129	74.11
248.36	61.46
248.591	93.42
248.822	72.22
249.052	64.64
249.283	59.11
249.514	103.15
249.744	96.67
249.975	79.5
250.206	60.05
250.436	61.56
250.667	84.57
250.897	100
251.128	54.92
251.358	36.89
251.589	81.25
251.819	82.57
252.049	84.44
252.28	127.05
252.51	65.29
252.74	38.28
252.971	68.33
253.201	78.81
253.431	87.59
253.661	53.58
253.891	76.32
254.121	88.31
254.352	94.49
254.582	99.72
254.812	57.65
255.042	130.57
255.272	75.92
255.502	62.13
255.732	75.7
255.962	70.44
256.192	95.88
256.421	127.2
256.651	84.87
256.881	52.4
257.111	42.92
257.341	69.33
257.57	120
257.8	108.27
258.03	104.95
258.259	31.46
258.489	46.29
258.719	77.59
258.948	85.9
259.178	113.75
259.407	52.94
259.637	91.08
259.866	67.81
260.096	87.53
260.325	92.84
260.555	56.74
260.784	36.96
261.013	75.72
261.243	47.94
261.472	25.76
261.701	76.87
261.931	43.38
262.16	67.76
262.389	121.99
262.618	89.71
262.847	75.86
263.076	89.74
263.305	64.82
263.535	88.19
263.764	110.85
263.993	63.92
264.222	82.35
264.451	79.87
264.679	88.32
264.908	94.21
265.137	90.09
265.366	107.6
265.595	51.9
265.824	82.63
266.053	63.34
266.281	98.52
266.51	71.12
266.739	78.44
266.967	74.47
267.196	106.29
267.425	56.44
267.653	79.37
267.882	57.78
268.11	95.89
268.339	48.98
268.567	72.64
268.796	71.46
269.024	76.47
269.253	14.7
269.481	85.95
269.709	81.23
269.938	17.36
270.166	62.97
270.394	73.04
270.623	81.79
270.851	53.19
271.079	45.85
271.307	79.66
271.535	55.81
271.764	62.99
271.992	36.33
272.22	52.67
272.448	85.64
272.676	60.7
272.904	44
273.132	70.12
273.36	82.84
273.588	105.28
273.816	73.64
274.043	77.59
274.271	75
274.499	126.05
274.727	82.97
274.955	89.96
275.182	65.38
275.41	73.04
275.638	77.46
275.866	50.2
276.093	40.43
276.321	81.7
276.548	63.84
276.776	86.51
277.003	71.65
277.231	73.13
277.458	54.35
277.686	84.62
277.913	105.9
278.141	85.09
278.368	79.3
278.595	81.66
278.823	80.88
279.05	66.6
279.277	71.68
279.505	86.65
279.732	52.03
279.959	70.05
280.186	89.2
280.413	82.13
280.641	47.25
280.868	68.04
281.095	77.69
281.322	18.21
281.549	85.71
281.776	80.86
282.003	164.96
282.23	71.76
282.457	92.59
282.683	22.09
282.91	74.95
283.137	93.1
283.364	73.36
283.591	83.88
283.818	109.52
284.044	76.06
284.271	42.46
284.498	110.61
284.724	125.91
284.951	69.48
285.178	73.35
285.404	65.89
285.631	101.43
285.857	63.04
286.084	54.1
286.31	66.17
286.537	53.69
286.763	84.41
286.99	67.81
287.216	113.83
287.442	80.46
287.669	130.67
287.895	76.71
288.121	80.5
288.347	84.92
288.574	80.68
288.8	79.2
289.026	57.46
289.252	63.31
289.478	78.54
289.704	113.11
289.931	68.13
290.157	93.54
290.383	77.39
290.609	83.79
290.835	57.53
291.06	68.94
291.286	87.01
291.512	78.21
291.738	86.26
291.964	66.5
292.19	81.31
292.416	83.96
292.641	97.4
292.867	51.47
293.093	75.18
293.319	82.23
293.544	55.04
293.77	66.05
293.995	105.43
294.221	91.72
294.447	83.79
294.672	75.04
294.898	81.16
295.123	77.75
295.349	55.04
295.574	126.27
295.799	67.89
296.025	93.73
296.25	80.79
296.476	77.02
296.701	73.05
296.926	80.18
297.151	78.36
297.377	92.88
297.602	66.32
297.827	76.51
298.052	79.11
298.277	66.77
298.502	87.54
298.727	48.76
298.953	60
299.178	61.74
299.403	28.83
299.628	102.33
299.852	62.8
300.077	62.17
300.302	74.31
300.527	64.92
300.752	66.19
300.977	72.35
301.202	94.09
301.426	60.25
301.651	52.58
301.876	90.05
302.101	77.4
302.325	79.33
302.55	85.01
302.775	68.82
302.999	50
303.224	97.92
303.448	78.1
303.673	110.56
303.897	84.11
304.122	77.03
304.346	69.8
304.571	86.21
304.795	58.64
305.019	60.21
305.244	64.24
305.468	102.82
305.692	80.98
305.917	85.71
306.141	88.33
306.365	70.3
306.589	88.28
306.813	84.64
307.038	61.25
307.262	73.41
307.486	71.56
307.71	86.89
307.934	77.39
308.158	61.27
308.382	125.18
308.606	60.49
308.83	77.85
309.054	64.21
309.278	57.58
309.502	35.09
309.725	57.68
309.949	53.7
310.173	63.74
310.397	97.38
310.62	69.84
310.844	83.22
311.068	117.84
311.292	81.04
311.515	99.48
311.739	64.24
311.962	72.36
312.186	70.8
312.41	96.35
312.633	88.91
312.857	77.15
313.08	42.03
313.303	76.12
313.527	101.55
313.75	74.17
313.974	98.91
314.197	81.47
314.42	71.91
314.644	41.94
314.867	61.93
315.09	50.37
315.313	87.53
315.536	67.47
315.76	34.41
315.983	103.46
316.206	60.84
316.429	35.59
316.652	77.32
316.875	79.6
317.098	80
317.321	89.18
317.544	93.46
317.767	50.58
317.99	121.31
318.213	104.51
318.436	67.65
318.658	70.77
318.881	64.85
319.104	47.48
319.327	92.66
319.55	77.76
319.772	82.12
319.995	74.85
320.218	59.1
320.44	106.65
320.663	64.55
320.885	74.25
321.108	61.64
321.331	59.79
321.553	70.6
321.776	74.15
321.998	70.97
322.22	81.97
322.443	86.43
322.665	72.57
322.888	110.2
323.11	76.5
323.332	70.11
323.555	53.35
323.777	142.9
323.999	72.35
324.221	95.7
324.443	78.98
324.666	86.92
324.888	57.98
325.11	65.12
325.332	58.36
325.554	74.39
325.776	78.87
325.998	67.44
326.22	99.06
326.442	89.26
326.664	48.55
326.886	106
327.108	95.72
327.33	87.2
327.551	78.59
327.773	49.12
327.995	81.89
328.217	59.55
328.439	67.2
328.66	92.49
328.882	59.75
329.104	64.92
329.325	72.23
329.547	94.21
329.769	77.16
329.99	82.9
330.212	65.03
330.433	85.5
330.655	51.1
330.876	82.78
331.098	83.71
331.319	85.71
331.54	70.15
331.762	79.09
331.983	70.91
332.204	105.47
332.426	68.49
332.647	80.13
332.868	73.49
333.089	60.08
333.311	58.59
333.532	89.44
333.753	97.84
333.974	87.76
334.195	101.95
334.416	59.44
334.637	77.39
334.858	56.86
335.079	59.06
335.3	100.18
335.521	66.09
335.742	65.61
335.963	50.65
336.184	71.95
336.405	50.5
336.626	59.32
336.846	40.82
337.067	74.87
337.288	79.15
337.509	67.73
337.729	82.83
337.95	52.93
338.171	92.39
338.391	55.14
338.612	65.57
338.833	46.32
339.053	70.68
339.274	68.17
339.494	103.23
339.715	86.8
339.935	81.36
340.156	62.89
340.376	63.32
340.596	59.75
340.817	53.02
341.037	78.2
341.257	71.69
341.478	74.91
341.698	123.5
341.918	75.31
342.138	81.19
342.359	108.31
342.579	71.45
342.799	59.78
343.019	71.96
343.239	70.04
343.459	70.9
343.679	72.77
343.899	73.32
344.119	93.97
344.339	64.77
344.559	97.11
344.779	89.64
344.999	59.1
345.219	77.68
345.439	113.42
345.658	76.99
345.878	101.82
346.098	34.83
346.318	61.08
346.537	87.09
346.757	72.45
346.977	64.77
347.196	69.53
347.416	74.32
347.636	66.55
347.855	58.76
348.075	63.71
348.294	67.2
348.514	73.19
348.733	48.42
348.953	77.02
349.172	52.03
349.392	70.97
349.611	57.92
349.83	41.75
350.05	75.37
350.269	80.77
350.488	81.37
350.707	68.63
350.927	81.25
351.146	86.56
351.365	56.29
351.584	61.75
351.803	93.12
352.023	50.86
352.242	69.56
352.461	101.84
352.68	54.63
352.899	84.71
353.118	85.12
353.337	93.04
353.556	87.05
353.775	89.31
353.993	89.42
354.212	50.49
354.431	105.76
354.65	96.15
354.869	95.34
355.088	65.67
355.306	96.44
355.525	57.37
355.744	67.05
355.962	109.07
356.181	69.41
356.4	98.33
356.618	91.97
356.837	70.62
357.055	74.67
357.274	67.82
357.492	77.44
357.711	52.16
357.929	44.63
358.148	79.43
358.366	28.52
358.585	72.47
358.803	63.81
359.021	80.81
359.24	68.24
359.458	104.37
359.676	49.01
359.894	67.91
360.113	55.36
360.331	69.4
360.549	46.2
360.767	74.07
360.985	76.39
361.203	87.28
361.421	67.8
361.639	72.44
361.857	58.35
362.075	57.82
362.293	71.93
362.511	97.07
362.729	63.79
362.947	53.15
363.165	86.54
363.383	61.69
363.601	68.73
363.819	86.07
364.036	78.79
364.254	87.01
364.472	78.54
364.689	90.37
364.907	62.47
365.125	75.1
365.342	96.78
365.56	66.5
365.778	68.35
365.995	58.2
366.213	86.63
366.43	76.41
366.648	75
366.865	56.91
367.083	61.48
367.3	85.83
367.517	87.65
367.735	60.77
367.952	72.18
368.17	115.02
368.387	65.02
368.604	65.41
368.821	55.73
369.039	67.03
369.256	51.87
369.473	50.87
369.69	49.6
369.907	57.51
370.124	118.48
370.341	63.45
370.558	66.67
370.776	72.43
370.993	75.14
371.21	69.18
371.426	72.19
371.643	73.99
371.86	62.25
372.077	72.89
372.294	61.35
372.511	61.16
372.728	93.24
372.945	61.17
373.161	58.35
373.378	68.8
373.595	79.4
373.811	55.51
374.028	80.03
374.245	43
374.461	82.66
374.678	51.74
374.895	71.19
375.111	56.67
375.328	41.28
375.544	53.2
375.761	66.72
375.977	63.43
376.194	72.79
376.41	65.64
376.626	65.29
376.843	54.19
377.059	71.62
377.275	64.73
377.492	94.62
377.708	50.18
377.924	62.59
378.14	60.09
378.357	68
378.573	63.69
378.789	66.96
379.005	54
379.221	63.51
379.437	41.52
379.653	64.27
379.869	85
380.085	80.71
380.301	70.89
380.517	66.22
380.733	65.46
380.949	61.93
381.165	64.25
381.381	63.65
381.597	68.06
381.813	63.59
382.028	60.52
382.244	58.52
382.46	47.78
382.676	65.64
382.891	57.37
383.107	46.19
383.323	60.2
383.538	54.06
383.754	60.07
383.969	63.35
384.185	66.62
384.4	60.65
384.616	49.34
384.831	52.42
385.047	39.86
385.262	68.9
385.478	62.7
385.693	71.9
385.909	44.19
386.124	63.8
386.339	48.22
386.554	66.35
386.77	63.04
386.985	59.7
387.2	38.51
387.415	60.81
387.631	49.21
387.846	45.34
388.061	61.31
388.276	51.07
388.491	47.48
388.706	45.58
388.921	59.49
389.136	60.43
389.351	41.09
389.566	37.5
389.781	37.38
389.996	40.37
390.211	49.48
390.426	54.12
390.641	43.36
390.855	53.08
391.07	46.01
391.285	41.83
391.5	48.52
391.714	51.78
391.929	36.42
392.144	32.27
392.358	27.53
392.573	41.87
392.788	50.96
393.002	47.47
393.217	43.4
393.431	35.93
393.646	38.53
393.86	32.88
394.075	35.99
394.289	39.01
394.504	51.43
394.718	34.68
394.933	34.62
395.147	27.88
395.361	26.99
395.576	31.89
395.79	27.38
396.004	34.46
396.218	33.45
396.432	37.39
396.647	32.82
396.861	31.96
397.075	37.15
397.289	24.84
397.503	38.23
397.717	27.81
397.931	30.89
398.145	30.99
398.359	26.75
398.573	31.42
398.787	29.54
399.001	30.79
399.215	27.61
399.429	24.91
399.643	25.34
399.857	23.56
400.07	18.57
400.284	32.15
400.498	25.26
400.712	26.65
400.925	29.9
401.139	24.23
401.353	32.45
401.566	22.53
401.78	24.11
401.994	27.06
402.207	21.05
402.421	26.18
402.634	27.22
402.848	18.77
403.061	23.96
403.275	21.01
403.488	21.66
403.702	19.85
403.915	21.78
404.128	20.03
404.342	18.11
404.555	18.23
404.768	23.32
404.982	16.07
405.195	22.23
405.408	18.67
405.621	16.88
405.835	18.28
406.048	16.32
406.261	19.81
406.474	19.93
406.687	17.06
406.9	15.62
407.113	14.24
407.326	18.19
407.539	19.41
407.752	17.72
407.965	14.12
408.178	16.24
408.391	16.22
408.604	15.95
408.817	14.34
409.029	15.96
409.242	14.91
409.455	15.45
409.668	14.44
409.881	15.1
410.093	14.1
410.306	16.32
410.519	14.68
410.731	15.46
410.944	14.8
411.157	14.18
411.369	14.48
411.582	16.35
411.794	16.84
412.007	16.69
412.219	14.52
412.432	15.07
412.644	14.85
412.857	15.66
413.069	15.31
413.281	14.85
413.494	14.61
413.706	14.76
413.918	15.22
414.131	15.54
414.343	15.16
414.555	13.06
414.767	14.74
414.979	14.98
415.192	14.62
415.404	15.61
415.616	14.16
415.828	15.8
416.04	14.33
416.252	15.75
416.464	14.28
416.676	13.84
416.888	15.19
417.1	12.15
417.312	16.01
417.524	14.18
417.736	14.26
417.948	13.96
418.159	15.63
418.371	15.3
418.583	14.13
418.795	13.6
419.007	15.61
419.218	15.62
419.43	15.95
419.642	15.55
419.853	14.06
420.065	16.09
420.276	15.24
420.488	15.32
420.7	15.12
420.911	14.57
421.123	14.05
421.334	15.25
421.546	15.82
421.757	14.68
421.969	15.61
422.18	15.27
422.391	16.06
422.603	16.56
422.814	15.58
423.025	15.13
423.237	16.19
423.448	15.53
423.659	17.08
423.87	16.92
424.082	17.01
424.293	15.87
424.504	16.23
424.715	15.67
424.926	16.35
425.137	17.53
425.348	18.26
425.559	16.57
425.77	17.01
425.981	16.93
426.192	19.25
426.403	17.45
426.614	17.58
426.825	17.78
427.036	18.73
427.247	18.46
427.458	18.66
427.668	18.65
427.879	17.99
428.09	19.38
428.301	19.07
428.511	19.02
428.722	19.27
428.933	19.12
429.143	20.45
429.354	21.07
429.565	19.47
429.775	20.48
429.986	21.87
430.196	20.45
430.407	22.6
430.617	21.27
430.828	21.92
431.038	23.09
431.249	23.27
431.459	22.76
431.669	24.35
431.88	23.55
432.09	24.28
432.3	23.86
432.511	24.05
432.721	23.39
432.931	25.09
433.141	25.86
433.351	25.84
433.562	24.74
433.772	26.84
433.982	26.6
434.192	26.09
434.402	27.74
434.612	27.83
434.822	28.01
435.032	28.38
435.242	30.49
435.452	28.98
435.662	30.1
435.872	31.36
436.082	31.95
436.292	31.26
436.502	32.08
436.711	33.56
436.921	32.64
437.131	34.24
437.341	35.36
437.551	34.41
437.76	36.28
437.97	34.56
438.18	37.5
438.389	36.39
438.599	38.28
438.808	39.55
439.018	39.84
439.228	39.77
439.437	41.46
439.647	41.33
439.856	43.74
440.066	42.5
440.275	43.66
440.484	45.53
440.694	46.49
440.903	46.89
441.113	48.53
441.322	49.13
441.531	51.36
441.741	51.68
441.95	52.17
442.159	54.11
442.368	53.73
442.577	54.85
442.787	57.42
442.996	56.97
443.205	59.31
443.414	59.19
443.623	60.52
443.832	63.02
444.041	62.92
444.25	64.73
444.459	66.71
444.668	68.07
444.877	69.54
445.086	71.95
445.295	72.16
445.504	72.78
445.713	73.68
445.922	75.7
446.13	76.38
446.339	78.12
446.548	77.77
446.757	80.4
446.965	81.29
447.174	83.09
447.383	84.1
447.591	83.49
447.8	85.88
448.009	87.92
448.217	89.66
448.426	89.77
448.634	90.57
448.843	88.26
449.051	90.58
449.26	94.87
449.468	92.24
449.677	93.94
449.885	93.56
450.093	93.74
450.302	95.34
450.51	94.82
450.719	96.18
450.927	97.19
451.135	97.37
451.343	96.56
451.552	97.36
451.76	96.78
451.968	96.98
452.176	95.26
452.384	93.82
452.592	95.33
452.8	94.1
453.009	93.13
453.217	91.94
453.425	92.87
453.633	91.76
453.841	90
454.049	87.9
454.257	89.77
454.464	88.24
454.672	86.03
454.88	84.38
455.088	84.06
455.296	80.05
455.504	82.91
455.711	81.56
455.919	78.04
456.127	78.19
456.335	74.29
456.542	73.41
456.75	72.14
456.958	73.11
457.165	73.15
457.373	71.57
457.581	69.48
457.788	67.09
457.996	67.32
458.203	65.44
458.411	63.77
458.618	63.15
458.826	60.38
459.033	60.79
459.24	59.41
459.448	58.27
459.655	58.36
459.863	56.42
460.07	55.02
460.277	53.55
460.484	52.96
460.692	51.34
460.899	50.82
461.106	49.77
461.313	49.1
461.52	48.71
461.728	49.39
461.935	46.93
462.142	45.44
462.349	43.86
462.556	44.81
462.763	43.67
462.97	42.55
463.177	42.03
463.384	41.78
463.591	40.61
463.798	40.62
464.005	39.51
464.212	38.29
464.418	37.67
464.625	37.31
464.832	37.2
465.039	36.44
465.246	37.05
465.452	35.37
465.659	33.37
465.866	34.49
466.072	32.93
466.279	33.06
466.486	32.58
466.692	31.64
466.899	31.12
467.105	31.15
467.312	30.15
467.519	30.15
467.725	30.16
467.931	28.7
468.138	27.55
468.344	29.08
468.551	27.66
468.757	26.54
468.964	27.51
