Data from 2019-05-04_Transmission_20-17-44-441.txt Node
Date: Sat May 04 20:17:44 EDT 2019
User: dh1006
Spectrometer: USB4E01358
Autoset integration time: false
Trigger mode: 4
Integration Time (sec): 1.000000E-1
Scans to average: 10
Electric dark correction enabled: true
Nonlinearity correction enabled: false
Boxcar width: 0
Stray light correction enabled: false
XAxis mode: Wavelengths
Stop averaging: false
Number of Pixels in Spectrum: 3648
>>>>>Begin Spectral Data<<<<<
176.727	154.72
176.966	154.72
177.205	154.72
177.444	29.81
177.683	35.7
177.922	23.69
178.161	6.82
178.4	-15.19
178.638	66.57
178.877	353.85
179.116	158.56
179.355	73.16
179.593	24.03
179.832	461.32
180.071	-158.12
180.309	-10.99
180.548	-120.71
180.786	82.28
181.025	48.84
181.263	76.1
181.502	60.1
181.74	54.49
181.979	157.94
182.217	105.78
182.456	31.84
182.694	97.64
182.932	44.35
183.17	77.57
183.409	94.25
183.647	62.41
183.885	40.74
184.123	64.52
184.361	111.69
184.6	98.75
184.838	50.09
185.076	61.15
185.314	75.39
185.552	49.65
185.79	132.23
186.028	96.46
186.266	74.44
186.503	64.6
186.741	51.61
186.979	78.43
187.217	105.25
187.455	85.49
187.693	57.96
187.93	46.01
188.168	42.23
188.406	57.4
188.643	76.15
188.881	79.89
189.119	79.98
189.356	80.03
189.594	69.28
189.831	107.06
190.069	50.15
190.306	64.59
190.543	72.7
190.781	80.31
191.018	52.47
191.256	41.83
191.493	60.98
191.73	73.28
191.967	57.93
192.205	92.17
192.442	35.04
192.679	30.09
192.916	89.54
193.153	93.96
193.39	60.94
193.628	99.96
193.865	82.08
194.102	92.43
194.339	92.83
194.576	59.47
194.813	108.45
195.049	49.7
195.286	46.15
195.523	77.61
195.76	74.63
195.997	111.95
196.234	80.65
196.47	88.69
196.707	105.84
196.944	73.26
197.18	61.27
197.417	68.15
197.654	109.13
197.89	62.01
198.127	100.8
198.363	79.31
198.6	62.82
198.836	76.39
199.073	93.16
199.309	57.89
199.546	61
199.782	82.1
200.018	97.33
200.255	87.44
200.491	69.11
200.727	117.43
200.963	57.93
201.199	52.62
201.436	99.52
201.672	114.17
201.908	40.87
202.144	53.85
202.38	60.27
202.616	78.34
202.852	70.58
203.088	70.29
203.324	81.33
203.56	33.71
203.796	87.06
204.032	80.29
204.268	105.13
204.503	83.72
204.739	73.89
204.975	53.85
205.211	72.76
205.446	51.01
205.682	54.13
205.918	86.14
206.153	0.43
206.389	60.34
206.625	101.81
206.86	64.33
207.096	76.42
207.331	88.18
207.567	45.38
207.802	94.89
208.037	97.84
208.273	81.95
208.508	87.55
208.744	88.43
208.979	57.27
209.214	85.48
209.449	126.09
209.685	53.21
209.92	78.17
210.155	20.91
210.39	71.04
210.625	57.65
210.86	85.04
211.095	74.66
211.33	69.26
211.565	69.31
211.8	60.52
212.035	104.4
212.27	72.13
212.505	53.31
212.74	90.41
212.975	139.67
213.21	84.79
213.444	116.44
213.679	90.01
213.914	65.41
214.149	83.47
214.383	67.94
214.618	71.94
214.853	84.98
215.087	64.54
215.322	81.45
215.556	55.28
215.791	116.02
216.025	85.23
216.26	89.85
216.494	66.03
216.729	75.84
216.963	63.59
217.197	42
217.432	99.46
217.666	12.14
217.9	52.64
218.135	37.14
218.369	36.52
218.603	73.64
218.837	71.73
219.071	53.92
219.306	147.52
219.54	60.12
219.774	56.98
220.008	149.73
220.242	108.88
220.476	57.85
220.71	47.35
220.944	65.93
221.178	97.25
221.411	24.21
221.645	75.87
221.879	62.36
222.113	74.75
222.347	134.63
222.58	83.37
222.814	39.48
223.048	61.58
223.281	52.75
223.515	78.79
223.749	77.07
223.982	102.62
224.216	102.98
224.449	54.68
224.683	86.76
224.916	96.09
225.15	76.24
225.383	119.15
225.617	94.84
225.85	89.5
226.083	82.86
226.317	79.71
226.55	77.88
226.783	56.45
227.016	33.41
227.25	64.9
227.483	96
227.716	113.56
227.949	50.72
228.182	90.13
228.415	54.48
228.648	74.17
228.881	79.42
229.114	51.26
229.347	51.1
229.58	88.38
229.813	65.02
230.046	77.86
230.279	88.8
230.512	72.81
230.745	60.32
230.977	62.55
231.21	79.31
231.443	68.02
231.675	66.64
231.908	83.32
232.141	73.12
232.373	74.31
232.606	47.97
232.839	91.65
233.071	68.02
233.304	21.43
233.536	84
233.769	67.35
234.001	101.53
234.233	97.26
234.466	83.15
234.698	72.59
234.93	64.62
235.163	94.99
235.395	46.23
235.627	77.23
235.86	114.73
236.092	112.84
236.324	64.63
236.556	43.9
236.788	65.91
237.02	113.6
237.252	78.41
237.484	112.34
237.716	93.85
237.948	75.94
238.18	29.67
238.412	75.85
238.644	65.15
238.876	47.7
239.108	91.57
239.34	85.81
239.571	76.32
239.803	59.47
240.035	72.2
240.267	101.7
240.498	93.37
240.73	80.67
240.962	104.16
241.193	112.04
241.425	70.12
241.656	31.01
241.888	89.82
242.119	85.15
242.351	62.16
242.582	86.16
242.814	74.77
243.045	96.05
243.277	35.88
243.508	60.75
243.739	133.84
243.971	45.75
244.202	53.27
244.433	73.53
244.664	93.38
244.896	35.57
245.127	64
245.358	106.64
245.589	110.09
245.82	38.26
246.051	64.12
246.282	39.62
246.513	97.02
246.744	73.94
246.975	122.24
247.206	81.2
247.437	38.04
247.668	66.88
247.899	60.11
248.129	77.99
248.36	89.78
248.591	70.24
248.822	55.83
249.052	84.29
249.283	25.74
249.514	38.09
249.744	94.42
249.975	50.55
250.206	70.76
250.436	47.47
250.667	46.29
250.897	78.3
251.128	15.83
251.358	62
251.589	71.99
251.819	78.53
252.049	85.95
252.28	56.12
252.51	69.4
252.74	50.8
252.971	68.64
253.201	73.48
253.431	74.78
253.661	46.11
253.891	95.84
254.121	79.46
254.352	67.25
254.582	90.06
254.812	82.12
255.042	128.35
255.272	41.86
255.502	62.57
255.732	61.04
255.962	64.68
256.192	39.81
256.421	36.79
256.651	113.03
256.881	48.68
257.111	56.38
257.341	42.47
257.57	32.26
257.8	49.05
258.03	84.79
258.259	42.69
258.489	43.98
258.719	58.11
258.948	55.11
259.178	33.5
259.407	51.45
259.637	53.91
259.866	67.26
260.096	86.99
260.325	63.87
260.555	74.03
260.784	66.56
261.013	79.32
261.243	72.15
261.472	78.26
261.701	98.1
261.931	41.63
262.16	69.94
262.389	116.15
262.618	76.44
262.847	92.45
263.076	45.39
263.305	59.47
263.535	79.24
263.764	70.82
263.993	64.57
264.222	123.21
264.451	51.89
264.679	57.89
264.908	108.98
265.137	96.68
265.366	165.45
265.595	101.23
265.824	72.75
266.053	59.29
266.281	75.53
266.51	100.6
266.739	92.8
266.967	61.68
267.196	74.2
267.425	55.72
267.653	40.45
267.882	70.99
268.11	105.45
268.339	69.28
268.567	63.42
268.796	37.32
269.024	55.28
269.253	36.53
269.481	78.79
269.709	90.08
269.938	33.04
270.166	60.29
270.394	81.6
270.623	72.26
270.851	48.02
271.079	52.38
271.307	89.66
271.535	67.41
271.764	67.6
271.992	57.89
272.22	54.43
272.448	57.16
272.676	81.86
272.904	62.91
273.132	44.38
273.36	68.4
273.588	73.88
273.816	87.66
274.043	72.81
274.271	73.02
274.499	108.94
274.727	68.43
274.955	72.58
275.182	54.51
275.41	94.22
275.638	59.05
275.866	61.62
276.093	56.92
276.321	92.82
276.548	55.89
276.776	62.4
277.003	54.75
277.231	33.38
277.458	69
277.686	79.54
277.913	98.19
278.141	81.82
278.368	65.03
278.595	59.15
278.823	75.15
279.05	59.39
279.277	54.65
279.505	120.4
279.732	43.38
279.959	69.34
280.186	96.9
280.413	77.24
280.641	78.88
280.868	86.71
281.095	56.52
281.322	75.18
281.549	70.61
281.776	72.51
282.003	100.39
282.23	75.28
282.457	66.91
282.683	47.44
282.91	65.15
283.137	91.52
283.364	79.46
283.591	112.51
283.818	60.14
284.044	55.85
284.271	53.14
284.498	64.83
284.724	68.75
284.951	68.36
285.178	78.84
285.404	64.02
285.631	127.83
285.857	90.33
286.084	55.45
286.31	76.55
286.537	75.23
286.763	72.67
286.99	72.36
287.216	86.65
287.442	51
287.669	114.67
287.895	51.49
288.121	66.78
288.347	74.93
288.574	96.12
288.8	43.48
289.026	62.81
289.252	71.57
289.478	74.45
289.704	108.21
289.931	74.85
290.157	89.57
290.383	76.51
290.609	89.58
290.835	49.86
291.06	88.22
291.286	62.75
291.512	81.53
291.738	84.22
291.964	76.16
292.19	64.47
292.416	74.98
292.641	66.19
292.867	23.84
293.093	74.2
293.319	66.99
293.544	73.28
293.77	61.3
293.995	103.85
294.221	69.5
294.447	35.6
294.672	70.87
294.898	74.63
295.123	80.08
295.349	53.94
295.574	88.44
295.799	88.51
296.025	55.87
296.25	46.49
296.476	54.42
296.701	106.14
296.926	67.86
297.151	60.43
297.377	117.77
297.602	90.74
297.827	62.54
298.052	81.67
298.277	97.47
298.502	69.16
298.727	71.76
298.953	75.45
299.178	100.95
299.403	74.27
299.628	85.45
299.852	79.18
300.077	35.42
300.302	70.91
300.527	55.83
300.752	88.05
300.977	72.99
301.202	75.04
301.426	83.48
301.651	46.15
301.876	105.81
302.101	77.39
302.325	71.21
302.55	84.45
302.775	80.81
302.999	37.73
303.224	45.03
303.448	100.55
303.673	100.56
303.897	73.82
304.122	86.92
304.346	77.13
304.571	73.87
304.795	76.12
305.019	44.31
305.244	54.07
305.468	57.39
305.692	60.25
305.917	79.22
306.141	92.14
306.365	82.98
306.589	44.62
306.813	80.6
307.038	92.57
307.262	47.62
307.486	64.78
307.71	91.79
307.934	66.53
308.158	60.88
308.382	84.92
308.606	87.79
308.83	75.76
309.054	65.46
309.278	48.12
309.502	66.21
309.725	48.89
309.949	72.62
310.173	53.36
310.397	69.88
310.62	71.38
310.844	66.43
311.068	129.84
311.292	72.97
311.515	84.99
311.739	86.98
311.962	51.57
312.186	74.64
312.41	128.8
312.633	65.69
312.857	88.03
313.08	61.72
313.303	65.81
313.527	76.53
313.75	56.68
313.974	77.09
314.197	74.31
314.42	80.2
314.644	65.46
314.867	68.88
315.09	48.5
315.313	89.86
315.536	66.25
315.76	31.39
315.983	97.37
316.206	45.56
316.429	60.47
316.652	48.22
316.875	71.93
317.098	75.2
317.321	58.1
317.544	87.1
317.767	63.39
317.99	93.16
318.213	91.19
318.436	56.39
318.658	87.69
318.881	64.38
319.104	58.63
319.327	65.11
319.55	84.75
319.772	18.69
319.995	44.04
320.218	64.57
320.44	54.55
320.663	80.93
320.885	61.98
321.108	72.87
321.331	32.5
321.553	107.33
321.776	48.27
321.998	70.96
322.22	46.38
322.443	64.26
322.665	67.49
322.888	87.03
323.11	66.98
323.332	65.25
323.555	78.73
323.777	86.89
323.999	69.89
324.221	83.75
324.443	66.24
324.666	88.23
324.888	66.22
325.11	83.18
325.332	30.24
325.554	50.86
325.776	61.42
325.998	74.34
326.22	93.39
326.442	82.84
326.664	64.5
326.886	105.57
327.108	77.17
327.33	70.92
327.551	60.81
327.773	96.45
327.995	39.73
328.217	69.42
328.439	95.48
328.66	96.05
328.882	84.73
329.104	79.22
329.325	68.98
329.547	94.19
329.769	72.05
329.99	54.31
330.212	73.33
330.433	66.32
330.655	88.31
330.876	93.28
331.098	62.71
331.319	71.18
331.54	95.32
331.762	65.85
331.983	67.92
332.204	93.9
332.426	64.37
332.647	45.28
332.868	85.37
333.089	82.27
333.311	101.23
333.532	86.72
333.753	69.81
333.974	91.75
334.195	91.95
334.416	51.84
334.637	68.57
334.858	43.37
335.079	65.77
335.3	43.63
335.521	55.87
335.742	67.28
335.963	53.22
336.184	51.48
336.405	58.27
336.626	48.06
336.846	59.85
337.067	62.37
337.288	61.05
337.509	82.26
337.729	72.09
337.95	38.37
338.171	61.39
338.391	65.14
338.612	55.93
338.833	64.4
339.053	68.97
339.274	88.72
339.494	47.69
339.715	75.15
339.935	59.94
340.156	54.11
340.376	60.16
340.596	58.82
340.817	37.34
341.037	62.89
341.257	67.66
341.478	87.44
341.698	98.54
341.918	84.02
342.138	47.46
342.359	81.64
342.579	82.9
342.799	56.11
343.019	70.64
343.239	71.61
343.459	60.43
343.679	64.45
343.899	46.07
344.119	32.64
344.339	43.98
344.559	80.95
344.779	61.93
344.999	62.15
345.219	69.88
345.439	96.74
345.658	71.05
345.878	70.14
346.098	61.02
346.318	54.87
346.537	58.71
346.757	70.51
346.977	43.37
347.196	74.7
347.416	83.59
347.636	53.23
347.855	56.54
348.075	51.27
348.294	51.6
348.514	52.88
348.733	70.54
348.953	69.29
349.172	28.89
349.392	56.33
349.611	76.44
349.83	59.53
350.05	51.15
350.269	81.97
350.488	49.26
350.707	59.87
350.927	60.78
351.146	92.43
351.365	66.35
351.584	44.07
351.803	68.16
352.023	63.47
352.242	69.22
352.461	101.83
352.68	63.15
352.899	82.57
353.118	80.07
353.337	81.84
353.556	91.28
353.775	51.86
353.993	76.66
354.212	56.2
354.431	79.48
354.65	75.63
354.869	52.82
355.088	80.1
355.306	108.97
355.525	45.44
355.744	74.12
355.962	96.87
356.181	73.06
356.4	103.73
356.618	80.92
356.837	49.41
357.055	79.58
357.274	81.98
357.492	68.78
357.711	47.31
357.929	53.95
358.148	46.98
358.366	41.82
358.585	64.5
358.803	52.32
359.021	61.6
359.24	52.53
359.458	69.15
359.676	58.58
359.894	82.53
360.113	44.24
360.331	70.58
360.549	46.68
360.767	65.66
360.985	66.2
361.203	76.92
361.421	48.52
361.639	57.05
361.857	75.82
362.075	55.71
362.293	54.62
362.511	72.11
362.729	47.96
362.947	73.14
363.165	56.82
363.383	84.62
363.601	68.47
363.819	63.44
364.036	95.44
364.254	54.04
364.472	69.02
364.689	63.21
364.907	44.6
365.125	67.94
365.342	100.78
365.56	61.87
365.778	55.37
365.995	75.49
366.213	65.44
366.43	62.75
366.648	75.54
366.865	60.15
367.083	62.86
367.3	62.26
367.517	80.94
367.735	76.7
367.952	54.73
368.17	58.84
368.387	49.5
368.604	40.45
368.821	63.99
369.039	60.25
369.256	90.75
369.473	67.47
369.69	63.42
369.907	64.06
370.124	110.83
370.341	70.71
370.558	44.83
370.776	63.77
370.993	59.26
371.21	59.17
371.426	76.28
371.643	81.72
371.86	64.03
372.077	77.09
372.294	82.24
372.511	60.81
372.728	66.78
372.945	61.59
373.161	76.02
373.378	69.69
373.595	67.32
373.811	55.5
374.028	75.9
374.245	70.97
374.461	76.82
374.678	46.27
374.895	75.82
375.111	41.04
375.328	76.85
375.544	78.28
375.761	66.21
375.977	75.96
376.194	90.97
376.41	47.44
376.626	53.7
376.843	53.58
377.059	64.62
377.275	79.61
377.492	67.7
377.708	75.7
377.924	77.65
378.14	62.92
378.357	79.68
378.573	73.72
378.789	75.81
379.005	70.94
379.221	86.91
379.437	51.15
379.653	64.43
379.869	78.27
380.085	71.14
380.301	68.57
380.517	73.91
380.733	69.51
380.949	68.29
381.165	58.81
381.381	71.31
381.597	46.6
381.813	81.08
382.028	66.06
382.244	60.14
382.46	69.61
382.676	78.98
382.891	54.06
383.107	64.01
383.323	59.82
383.538	71.73
383.754	52.53
383.969	82.14
384.185	72.32
384.4	73.71
384.616	48.88
384.831	82.92
385.047	55.18
385.262	74.09
385.478	62.15
385.693	64.35
385.909	38.59
386.124	54.8
386.339	43.55
386.554	48.7
386.77	73.56
386.985	66.84
387.2	43.91
387.415	47.78
387.631	61.53
387.846	46.98
388.061	56.58
388.276	62.22
388.491	58.02
388.706	48.52
388.921	55.88
389.136	68.44
389.351	51.53
389.566	38.41
389.781	52.66
389.996	58.9
390.211	31.94
390.426	49.19
390.641	57.37
390.855	47.86
391.07	48.92
391.285	46.96
391.5	57.9
391.714	58.51
391.929	37.33
392.144	32.47
392.358	41.19
392.573	49.13
392.788	54.36
393.002	48.14
393.217	26.67
393.431	37.4
393.646	40.08
393.86	43.8
394.075	36.25
394.289	50.03
394.504	57.16
394.718	33.12
394.933	49.99
395.147	33.96
395.361	32.93
395.576	43.44
395.79	32.97
396.004	34.46
396.218	33.44
396.432	42.8
396.647	34.75
396.861	36.08
397.075	32.76
397.289	28.85
397.503	38.45
397.717	35.91
397.931	37.01
398.145	30.26
398.359	36.28
398.573	35.82
398.787	31.9
399.001	32.77
399.215	35.68
399.429	28.66
399.643	31.72
399.857	35.31
400.07	31.67
400.284	36.6
400.498	30.39
400.712	34.74
400.925	32.02
401.139	23.17
401.353	32.78
401.566	27.32
401.78	29.35
401.994	30.12
402.207	23.42
402.421	25.19
402.634	29.43
402.848	26.01
403.061	25.99
403.275	25.79
403.488	27.06
403.702	25
403.915	32.31
404.128	18.45
404.342	19.77
404.555	22.98
404.768	28
404.982	26.21
405.195	25.46
405.408	22.33
405.621	22.59
405.835	20.04
406.048	19.26
406.261	22.5
406.474	22.2
406.687	21.36
406.9	21.94
407.113	15.28
407.326	17.55
407.539	20.13
407.752	16.23
407.965	17.49
408.178	17.63
408.391	23.5
408.604	16.21
408.817	16.66
409.029	19.96
409.242	17.63
409.455	14.4
409.668	16.15
409.881	14.95
410.093	15.05
410.306	16.87
410.519	15.66
410.731	16.95
410.944	15.58
411.157	14.23
411.369	15.91
411.582	15.94
411.794	14.76
412.007	16.06
412.219	13.99
412.432	16.14
412.644	13.46
412.857	16.42
413.069	13.85
413.281	14.69
413.494	14.47
413.706	14.14
413.918	14.3
414.131	15.11
414.343	13.84
414.555	12.91
414.767	14.32
414.979	13.48
415.192	14
415.404	15.89
415.616	14.39
415.828	14.86
416.04	12.82
416.252	13.83
416.464	12.77
416.676	12.77
416.888	14.48
417.1	11.66
417.312	13.79
417.524	12.49
417.736	13.17
417.948	12.58
418.159	14.31
418.371	11.85
418.583	12.35
418.795	10.89
419.007	13.35
419.218	12.45
419.43	11.91
419.642	14.73
419.853	11.84
420.065	12.59
420.276	12.97
420.488	12.66
420.7	12.5
420.911	11.57
421.123	11.51
421.334	12.57
421.546	11.32
421.757	11.68
421.969	12.1
422.18	10.6
422.391	11.34
422.603	13.21
422.814	11.5
423.025	11.31
423.237	11.58
423.448	10.93
423.659	11.31
423.87	11.48
424.082	11.71
424.293	10.9
424.504	11.32
424.715	10.81
424.926	11.24
425.137	12.42
425.348	11.71
425.559	11.45
425.77	11.4
425.981	11.18
426.192	12.77
426.403	10.43
426.614	10.36
426.825	11.76
427.036	11.27
427.247	10.87
427.458	11.56
427.668	11.64
427.879	11.64
428.09	11.65
428.301	10.36
428.511	11.69
428.722	12.45
428.933	10.41
429.143	12.27
429.354	11.8
429.565	10.68
429.775	10.52
429.986	11.79
430.196	10.19
430.407	12.95
430.617	10.59
430.828	12
431.038	11.51
431.249	12.38
431.459	12.36
431.669	13.75
431.88	12.01
432.09	12.19
432.3	11.85
432.511	10.84
432.721	11.69
432.931	13.2
433.141	12.08
433.351	12.93
433.562	10.68
433.772	12.65
433.982	12.42
434.192	10.83
434.402	11.64
434.612	10.91
434.822	11.37
435.032	11.89
435.242	12.99
435.452	11.9
435.662	11.31
435.872	13.69
436.082	14.12
436.292	12.96
436.502	12.73
436.711	13.41
436.921	12.77
437.131	12.03
437.341	12.29
437.551	11.74
437.76	13.43
437.97	11.1
438.18	13.47
438.389	13.71
438.599	12.3
438.808	14.69
439.018	13.35
439.228	13.34
439.437	13.83
439.647	13.2
439.856	14.29
440.066	13.96
440.275	14.53
440.484	12.19
440.694	14.16
440.903	14.02
441.113	14
441.322	13.53
441.531	14.43
441.741	15.25
441.95	14.13
442.159	14.53
442.368	15.16
442.577	15.69
442.787	15.92
442.996	13.29
443.205	15.78
443.414	15.89
443.623	15.93
443.832	15.25
444.041	16.13
444.25	16.29
444.459	15.8
444.668	16.3
444.877	16
445.086	16.11
445.295	15.94
445.504	15.44
445.713	16.68
445.922	17.49
446.13	17.94
446.339	17.74
446.548	16.31
446.757	17.91
446.965	18.17
447.174	18.79
447.383	18.28
447.591	18.04
447.8	18.01
448.009	18.74
448.217	20.21
448.426	20.38
448.634	19.2
448.843	18.37
449.051	19.49
449.26	20.11
449.468	19.7
449.677	19.79
449.885	19.68
450.093	18.72
450.302	20.71
450.51	22.81
450.719	20.98
450.927	21.89
451.135	21.65
451.343	22.3
451.552	22.85
451.76	22.6
451.968	22.84
452.176	22.9
452.384	23.42
452.592	24.55
452.8	24.8
453.009	24.4
453.217	25.43
453.425	25.81
453.633	24.15
453.841	24.6
454.049	25.3
454.257	26.2
454.464	27.22
454.672	27.94
454.88	28.38
455.088	27.52
455.296	26.48
455.504	29.54
455.711	29.82
455.919	28.93
456.127	30.58
456.335	28.98
456.542	30.42
456.75	31.16
456.958	33.2
457.165	32.43
457.373	34.59
457.581	33.56
457.788	34.62
457.996	35.67
458.203	35.63
458.411	35.94
458.618	37.48
458.826	37.19
459.033	37.26
459.24	38.03
459.448	39.18
459.655	40.95
459.863	40.88
460.07	40.33
460.277	42.23
460.484	44.03
460.692	43.64
460.899	45.2
461.106	44.32
461.313	45.5
461.52	45.13
461.728	46.97
461.935	48.05
462.142	48.66
462.349	49.34
462.556	49.85
462.763	51.71
462.97	53.77
463.177	54.45
463.384	55.52
463.591	55.11
463.798	57.23
464.005	56.56
464.212	58.84
464.418	59.04
464.625	61.24
464.832	62.66
465.039	62.95
465.246	64.5
465.452	64.99
465.659	65.59
465.866	67.81
466.072	68.52
466.279	68.36
466.486	70.79
466.692	71.48
466.899	72.07
467.105	75.12
467.312	73.33
467.519	77.44
467.725	76.39
467.931	75.29
468.138	77.41
468.344	79.84
468.551	79.63
468.757	81.74
